F1;F3;C3;P3 ;O1;F7 ;T3;T5;Fz;Cz;Pz;Oz;T6;T4;F8;O2;P4;C4;F4;F2
980;978;908;996;1040;1054;992;1035;874;1016;1035;1027;1079;1031;987;1087;1006;1017;977;853
970;983;925;1028;1067;1069;1008;1067;886;1027;1021;1061;1083;1027;982;1074;1020;1008;975;832
962;997;952;1016;1059;1087;1007;1067;912;1019;1045;1033;1098;1021;1014;1101;1042;1030;966;843
970;1014;926;991;1027;1052;976;1056;888;1039;1051;1010;1068;1033;988;1107;1026;1030;974;890
1008;1020;958;1012;1036;1075;1006;1064;910;1032;1016;1022;1050;1025;1022;1044;1004;1018;948;886
1023;1039;974;983;1015;1139;998;1048;966;1076;1026;990;1064;1030;1038;1051;998;1027;1014;974
1020;1020;973;975;999;1042;969;995;948;1051;976;934;1018;983;1013;1034;978;1004;1002;1003
1024;1036;971;992;1029;1117;984;1037;957;1048;1000;998;1043;1021;1005;1067;1008;1042;1024;1022
1036;1046;980;1012;1049;1244;1016;1074;984;1106;1047;989;1092;1055;1086;1078;1038;1082;1050;1058
1073;1066;958;1015;1026;1240;1029;1036;1000;1095;1026;952;1042;1049;1075;1029;1012;1065;1068;1078
1148;1120;1044;1080;1087;1252;1072;1083;1072;1161;1093;1030;1055;1072;1073;1073;1049;1091;1106;1133
1124;1102;1021;1057;1084;1214;1045;1089;1074;1141;1084;1049;1055;1069;1092;1068;1023;1074;1107;1144
1130;1103;1010;1052;1077;1117;1036;1085;1060;1106;1038;1033;1063;1049;1070;1075;1008;1059;1056;1131
1191;1096;1004;1023;1065;1063;1041;1077;1080;1102;1030;1067;1053;1078;1080;1051;1023;1066;1099;1195
1295;1162;1053;1064;1085;1024;1069;1130;1113;1157;1062;1051;1083;1124;1139;1088;1057;1106;1144;1270
1310;1169;1065;1075;1117;1015;1075;1134;1136;1132;1058;1061;1070;1105;1102;1111;1065;1102;1154;1301
1368;1183;1089;1077;1073;1045;1072;1060;1146;1137;1026;1028;1080;1108;1151;1086;1074;1129;1167;1350
1307;1123;1031;1029;1065;1008;1009;1071;1122;1137;1062;1022;1045;1061;1066;1110;1037;1098;1121;1261
1281;1123;1044;1058;1101;1087;1075;1092;1112;1125;1078;1036;1089;1081;1118;1114;1066;1101;1121;1231
1249;1144;1081;1085;1102;1099;1106;1102;1086;1114;1061;1039;1090;1105;1129;1111;1057;1096;1095;1155
1191;1091;1011;1032;1073;1074;1016;1076;1041;1074;1030;1037;1093;1106;1098;1072;1041;1067;1106;1149
1156;1100;1035;1030;1057;1043;1035;1022;1058;1145;1076;1006;1097;1123;1119;1078;1042;1085;1120;1144
1147;1066;997;1024;1055;970;1015;1014;1034;1117;1053;1025;1094;1106;1081;1054;1038;1069;1078;1104
1118;1063;1020;1036;1063;1078;1051;1078;1023;1098;1043;1072;1090;1105;1077;1065;1051;1095;1083;1032
1098;1075;1034;1047;1085;1092;1052;1058;1020;1103;1049;1011;1071;1049;1057;1093;1037;1081;1065;1031
1084;1072;1030;1050;1072;1125;1034;1077;1018;1107;1023;1043;1083;1075;1046;1107;1076;1101;1078;1007
1048;1041;1007;1041;1094;1082;1031;1101;979;1098;1059;1086;1116;1072;1053;1146;1079;1108;1061;998
1049;1024;990;1044;1098;1052;1012;1099;970;1120;1076;1092;1085;1040;1010;1133;1058;1078;1053;978
1034;1024;996;1049;1095;1075;1017;1095;977;1119;1071;1056;1107;1065;1068;1124;1067;1090;1072;1016
1070;1068;1032;1044;1084;1114;1041;1101;1001;1102;1053;1093;1085;1071;1045;1111;1049;1082;1073;1017
1075;1066;1039;1063;1058;1166;1022;1120;989;1140;1092;1070;1115;1107;1061;1138;1093;1134;1093;1035
1088;1062;1035;1062;1072;1156;1048;1105;1006;1138;1073;1046;1088;1069;1055;1134;1087;1115;1075;1001
1135;1082;1034;1043;1078;1171;1053;1104;1022;1112;1055;1070;1113;1106;1053;1110;1066;1093;1048;1017
1053;1048;997;1033;1054;1164;1012;1090;975;1111;1056;1038;1105;1070;1065;1122;1068;1066;1038;1019
1052;1045;998;1021;1061;1161;1041;1077;980;1079;1047;1027;1094;1046;1047;1108;1029;1054;1021;1021
1057;1044;980;990;1046;1114;1007;1073;957;1082;1007;1011;1069;1046;1018;1086;1007;1029;1008;1013
1074;1042;976;986;1033;1124;988;1041;956;1048;1010;1013;1064;1034;1045;1025;986;998;972;992
1076;1040;981;980;1015;1077;968;1042;950;1017;980;1000;1053;1009;1043;1038;978;996;1006;1048
1099;1059;1008;1011;1046;1023;1014;1085;993;1053;1005;1062;1061;1035;1037;1072;1005;1014;1023;1070
1156;1092;995;1003;1045;1023;1016;1061;996;1038;1007;1034;1072;1057;1036;1080;993;1019;1057;1154
1193;1135;1038;1034;1066;1060;1032;1083;1066;1077;1062;1024;1089;1053;1087;1104;1055;1073;1096;1184
1235;1138;1085;1060;1076;1102;1039;1110;1063;1171;1117;1055;1102;1099;1104;1146;1091;1139;1144;1264
1247;1164;1096;1055;1081;1158;1045;1091;1077;1152;1094;1072;1097;1087;1143;1122;1069;1131;1161;1281
1204;1126;1103;1058;1078;1145;1040;1098;1075;1159;1110;1056;1087;1095;1104;1152;1097;1121;1125;1177
1085;1043;1062;1021;1060;1095;1011;1074;959;1056;1038;1012;1083;1046;1052;1120;1030;1055;1021;1017
1071;1017;1037;1013;1060;1054;1005;1092;961;1058;1015;1059;1070;1054;1043;1058;1027;1051;1014;987
1061;1037;1026;998;1044;1053;990;1069;943;1021;1016;1064;1061;1035;1044;1048;995;1010;998;943
1038;1011;981;971;1025;994;986;1037;912;1012;974;1029;1060;1003;1035;1070;998;1007;1019;987
1043;1031;1035;984;1020;985;1018;1031;931;1025;1018;1022;1066;1040;1034;1071;1007;1009;1006;989
1070;1057;1063;991;1011;1017;1011;1038;956;1048;1017;992;1097;1043;1075;1090;1040;1035;1026;1003
1043;1015;1046;1012;1069;1057;1021;1065;961;1063;1032;1028;1098;1044;1068;1098;1045;1058;1054;972
1064;1070;1106;1027;1059;1069;1011;1044;995;1147;1063;1004;1078;1069;1094;1118;1080;1108;1094;1008
1044;1072;1116;1060;1078;1085;1029;1082;1005;1148;1094;1057;1088;1089;1084;1115;1061;1106;1102;999
1033;1056;1128;1050;1090;1104;1029;1116;1010;1177;1095;1059;1075;1074;1074;1112;1066;1112;1084;999
1071;1063;1126;1046;1060;1066;1051;1065;1005;1152;1071;1035;1070;1088;1044;1077;1056;1096;1084;1012
1078;1077;1111;1018;1041;1089;1000;1068;997;1117;1042;1026;1060;1055;1034;1050;1016;1051;1029;1010
1070;1071;1111;1031;1062;1111;1032;1066;1000;1059;1014;1037;1039;1005;1009;1065;999;1014;991;1029
1164;1092;1123;1028;1078;1131;1053;1085;1008;1052;1016;1021;1037;1038;1051;1075;998;1017;1066;1153
1219;1107;1101;1001;1066;1113;1013;1061;1042;1043;1006;1035;1045;1043;1092;1046;996;1015;1063;1172
1249;1109;1091;1021;1066;1155;1040;1071;1060;1060;1031;1053;1095;1084;1139;1109;1036;1080;1111;1239
1288;1172;1144;1047;1084;1157;1038;1103;1084;1159;1095;1035;1125;1109;1145;1129;1078;1097;1141;1272
1271;1142;1138;1027;1072;1173;1062;1096;1075;1149;1112;1059;1113;1127;1113;1157;1098;1116;1176;1291
1266;1181;1177;1083;1108;1208;1074;1140;1125;1134;1071;1122;1089;1098;1099;1103;1063;1095;1136;1200
1269;1175;1167;1078;1098;1171;1102;1122;1123;1137;1056;1069;1081;1095;1106;1076;1059;1083;1101;1160
1146;1097;1104;1043;1078;1127;1026;1102;1000;1088;1033;1057;1093;1062;1028;1045;1033;1071;1054;1040
1108;1085;1111;1039;1067;1180;1025;1094;1008;1110;1043;1019;1097;1042;1052;1076;1019;1059;1033;1011
1039;1017;1024;967;1031;1062;998;1010;942;1058;1012;971;1064;1006;1009;1066;1006;1031;1001;965
1043;1033;1042;993;1051;1058;1036;1071;957;1048;1017;1046;1076;1021;1011;1019;1000;1000;996;971
1040;1035;1053;1000;1052;1027;1003;1040;979;1082;1041;1039;1088;1042;1050;1060;1032;1049;1015;987
1026;1029;1036;1014;1056;1041;990;1014;966;1096;1051;1023;1087;1053;1042;1094;1060;1064;1062;1044
1034;1041;1052;1023;1060;1240;1052;1107;958;1113;1073;1051;1113;1059;1039;1113;1077;1069;1042;1045
1080;1085;1089;1046;1087;1285;1066;1077;959;1108;1064;1081;1133;1050;1036;1138;1080;1070;1046;1026
1017;1036;1049;1022;1072;1210;1014;1112;957;1102;1061;1023;1128;1067;1061;1106;1082;1065;1025;1010
1045;1029;1054;1031;1068;1184;1026;1080;940;1083;1054;1039;1095;1051;1041;1100;1055;1044;1037;1024
1002;1009;1016;987;1037;1164;990;1053;913;1089;1042;1010;1097;1048;1068;1090;1050;1044;1019;1032
1004;1019;1002;974;1025;1129;995;1055;931;1071;1028;980;1103;1027;1061;1092;1015;1031;1038;1058
1084;1042;1037;990;1032;1065;993;1038;952;1105;1077;984;1120;1054;1049;1117;1054;1078;1042;1103
1119;1060;1058;1004;1031;1080;1007;1029;970;1091;1056;1011;1103;1073;1085;1084;1057;1091;1050;1124
1169;1110;1121;1056;1076;1123;1080;1098;1042;1106;1073;1041;1115;1086;1078;1072;1050;1069;1054;1136
1180;1092;1075;1022;1069;1104;1055;1059;1022;1084;1042;1021;1112;1074;1070;1103;1042;1066;1087;1172
1189;1090;1087;1023;1082;1084;1050;1074;1055;1101;1060;1074;1114;1077;1057;1107;1050;1066;1092;1176
1215;1131;1142;1064;1109;1123;1095;1082;1088;1126;1078;1084;1139;1103;1107;1137;1093;1101;1128;1198
1263;1123;1115;1061;1107;1117;1058;1092;1099;1111;1062;1051;1133;1100;1110;1110;1066;1083;1136;1203
1281;1164;1121;1046;1100;1132;1032;1115;1100;1108;1058;1094;1124;1120;1100;1102;1070;1098;1139;1203
1222;1130;1112;1027;1066;1118;1041;1065;1063;1120;1065;1064;1109;1090;1095;1101;1061;1087;1126;1123
1134;1075;1103;1032;1045;1117;1056;1075;986;1091;1036;1006;1077;1062;1054;1088;1019;1056;1053;1029
1130;1066;1080;1027;1054;1049;1061;1087;955;1103;1067;1039;1079;1067;1015;1066;1042;1052;1060;998
1069;1033;1065;1012;1071;985;1038;1082;953;1092;1062;1052;1094;1056;1036;1095;1060;1057;1000;946
1022;1002;1053;1027;1079;957;1036;1082;920;1077;1045;1021;1079;1049;975;1123;1045;1030;981;946
995;957;988;981;1015;847;975;1039;888;1063;1014;988;1076;1024;985;1104;1030;1026;983;952
984;972;1006;994;1040;838;979;1062;887;1043;1034;997;1064;1024;972;1061;999;989;940;931
989;1002;1009;981;1037;825;1015;1050;913;1040;999;970;1054;1011;1019;1051;983;1001;943;942
1009;1016;1024;977;1022;874;1031;1050;933;1065;1004;1017;1047;1022;991;1062;981;1007;969;955
1040;1052;1068;1015;1042;829;1003;1078;953;1090;1058;1026;1085;1039;1015;1086;1019;1048;1020;1001
1051;1046;1063;1005;1051;707;1005;1033;999;1084;1032;1025;1074;1046;1048;1079;1016;1040;1045;1027
1047;1028;1029;1001;1056;765;1013;1055;981;1099;1040;1017;1070;1055;1032;1078;1037;1049;1048;1023
1064;1015;1025;1000;1047;990;1022;1071;972;1059;1017;1003;1064;1052;1017;1031;1002;1041;1027;1031
1012;1013;990;971;1032;1031;1012;1072;940;1052;1041;974;1073;1046;1043;1090;1028;1047;1015;1038
1037;1008;1001;984;1038;1098;1027;1069;946;1032;1001;1010;1075;1009;1015;1074;998;1019;978;991
1041;1004;1003;983;1019;1089;1021;1056;956;1022;980;999;1051;1019;1029;1013;979;1005;989;1009
1075;1038;1023;974;1015;1107;999;1011;966;1075;1011;998;1067;1051;1054;1054;1013;1032;1031;1038
1096;1073;1076;1015;1046;1134;1062;1053;987;1076;1018;1015;1082;1054;1074;1077;1022;1051;1064;1067
1137;1101;1078;1018;1063;1136;1011;1079;1011;1078;1051;1054;1059;1031;1052;1089;1026;1081;1071;1073
1150;1114;1104;1028;1058;1179;1031;1054;1046;1108;1053;1063;1077;1058;1058;1072;1032;1053;1086;1052
1159;1114;1095;1064;1076;1178;1059;1089;1067;1127;1062;1035;1078;1064;1075;1075;1045;1080;1084;1055
1122;1058;1056;1008;1050;1126;1054;1047;1021;1087;1013;1012;1076;1052;1069;1071;1039;1062;1064;1054
1105;1075;1064;1019;1066;1190;1063;1065;1040;1107;1051;1053;1082;1051;1079;1085;1050;1087;1075;1081
1149;1093;1061;1023;1065;1181;1035;1099;1043;1117;1055;1030;1107;1078;1095;1104;1062;1094;1084;1105
1182;1072;1051;1013;1052;1160;1047;1058;1048;1124;1041;1048;1100;1097;1095;1067;1059;1092;1108;1136
1287;1164;1134;1089;1134;1215;1126;1169;1134;1172;1115;1138;1122;1121;1137;1133;1106;1133;1159;1224
1363;1234;1180;1109;1129;1216;1133;1156;1170;1216;1146;1084;1117;1139;1147;1144;1115;1164;1192;1306
1359;1212;1181;1110;1117;1223;1152;1135;1166;1196;1109;1070;1091;1115;1161;1126;1104;1158;1201;1304
1337;1200;1153;1098;1114;1189;1105;1118;1136;1169;1112;1075;1105;1128;1130;1146;1093;1142;1176;1276
1283;1140;1071;1044;1062;1184;1058;1089;1100;1127;1055;1000;1103;1107;1150;1105;1082;1124;1131;1260
1226;1111;1074;1051;1078;1162;1067;1123;1059;1057;1012;1027;1063;1071;1090;1060;1029;1054;1065;1119
1138;1048;1014;1014;1066;1162;1054;1101;973;1050;1037;1044;1101;1079;1080;1090;1035;1057;1065;1089
1078;1032;1027;1037;1066;1184;1041;1088;959;1044;1020;1031;1054;1038;1074;1073;1028;1021;1023;1029
1071;1023;999;1005;1036;1087;1038;1069;933;1031;1010;1031;1075;1049;1044;1062;1019;1017;1014;1016
1007;987;1000;1001;1056;1093;1036;1064;940;1053;1019;1059;1089;1060;1029;1069;1024;1062;1029;976
1010;1018;989;1007;1052;1105;1045;1064;947;1067;1050;1042;1098;1062;1053;1085;1026;1049;1009;968
1029;1041;1022;1028;1058;1124;1047;1075;958;1083;1056;1086;1084;1060;1002;1149;1050;1078;1017;1000
1030;1039;1028;1031;1072;1118;1034;1082;967;1115;1083;1036;1098;1065;1061;1140;1081;1100;1067;1023
1057;1087;1054;1052;1098;1153;1057;1103;1008;1149;1100;1080;1091;1086;1040;1138;1085;1091;1071;1015
1074;1094;1083;1075;1094;1161;1121;1094;1018;1116;1045;1046;1090;1039;1062;1106;1058;1076;1069;1021
1103;1109;1091;1052;1102;1168;1054;1092;1034;1163;1087;1101;1103;1098;1076;1141;1092;1121;1112;1061
1109;1086;1046;1034;1078;1193;1033;1049;999;1094;1034;1057;1077;1073;1061;1087;1044;1075;1070;1046
1079;1093;1069;1059;1098;1155;1046;1149;998;1090;1035;1008;1070;1077;1081;1084;1039;1095;1063;1057
1116;1084;1042;1046;1074;1151;1067;1069;1006;1096;1040;996;1054;1059;1062;1064;1040;1091;1072;1086
1132;1076;1035;1012;1062;1152;1051;1041;996;1115;1034;996;1058;1080;1068;1040;1034;1078;1078;1077
1123;1086;1032;1017;1061;1160;1021;1037;1011;1102;1060;973;1068;1038;1049;1104;1043;1052;1063;1083
1112;1061;1003;1008;1044;1145;1061;1055;968;1066;1044;1007;1085;1042;1035;1101;1036;1040;1052;1101
1158;1097;1033;1037;1087;1166;1067;1097;1020;1038;1016;1047;1062;1012;1042;1052;1004;1004;1013;1051
1182;1088;1026;1021;1067;1182;1045;1102;1020;1052;1005;1043;1092;1061;1045;1063;1017;1023;1041;1095
1149;1053;1014;1001;1028;1067;971;978;1002;1062;994;955;1019;968;1006;1066;981;997;1037;1078
1136;1073;1020;1010;1052;1149;1010;1060;995;1071;1031;1056;1059;1032;1032;1102;1025;1041;1049;1101
1130;1074;1028;1020;1072;1159;1011;1065;958;1052;1046;1077;1071;1055;1055;1096;1051;1051;1047;1088
1145;1093;1032;1022;1072;1180;1041;1110;993;1068;1019;1044;1087;1048;1085;1095;1039;1058;1041;1089
1145;1091;1016;1042;1068;1141;1026;1072;1008;1069;1049;1070;1090;1089;1057;1103;1067;1052;1037;1086
1122;1081;1021;1041;1075;1180;1018;1080;1023;1115;1074;1059;1102;1080;1096;1130;1076;1084;1074;1094
1129;1104;1045;1052;1097;1181;1040;1095;1019;1128;1111;1052;1113;1079;1079;1164;1085;1103;1073;1107
1132;1080;1048;1042;1081;1125;1042;1064;1020;1085;1050;1057;1087;1080;1071;1094;1053;1077;1055;1066
1132;1080;1031;1055;1075;1155;1053;1099;1009;1098;1082;1085;1106;1065;1074;1112;1060;1060;1045;1035
1118;1063;996;1034;1078;1142;1026;1050;983;1061;1049;1060;1078;1042;1048;1109;1044;1040;1039;1064
1122;1063;969;998;1035;1115;988;1026;972;1071;1050;1038;1073;1059;1055;1095;1036;1038;1044;1042
1132;1072;1012;1002;1049;1125;994;1082;984;1068;1039;1078;1095;1087;1052;1111;1060;1064;1057;1024
1091;1044;987;1009;1061;1112;983;1059;987;1086;1025;1029;1114;1085;1083;1105;1050;1052;1021;981
1097;1042;997;1035;1067;1116;1007;1101;993;1123;1079;1045;1106;1078;1060;1134;1067;1099;1079;1003
1103;1046;1007;1044;1082;1138;1007;1145;1017;1133;1099;1065;1114;1089;1078;1118;1076;1089;1100;1021
1125;1078;981;1017;1067;1153;991;1115;1035;1110;1081;1046;1095;1077;1109;1115;1055;1087;1097;1058
1176;1095;961;1036;1083;1145;1021;1121;1031;1100;1060;1075;1077;1094;1071;1067;1045;1090;1105;1084
1198;1072;945;1020;1076;1129;1010;1090;1027;1106;1043;1056;1103;1103;1102;1064;1055;1069;1086;1095
1262;1134;980;1046;1098;1153;1038;1108;1072;1097;1068;1104;1113;1080;1114;1102;1067;1089;1100;1111
1262;1135;995;1052;1099;1165;1028;1099;1058;1086;1031;1069;1085;1063;1083;1108;1049;1067;1074;1117
1230;1104;946;1021;1065;1143;1028;1115;1020;1075;1060;1044;1107;1074;1078;1107;1047;1063;1058;1078
1190;1088;950;1052;1092;1131;1043;1092;1015;1085;1042;1031;1113;1071;1076;1103;1054;1069;1056;1060
1114;1050;947;1056;1113;1125;1033;1107;976;1086;1052;1039;1100;1052;1081;1090;1047;1071;1047;1016
1091;1048;961;1038;1076;1137;1003;1093;971;1111;1071;1065;1095;1063;1041;1103;1068;1096;1067;1025
1064;1056;948;1028;1064;1135;986;1079;983;1117;1042;1048;1102;1070;1055;1092;1042;1100;1087;1035
1085;1069;974;1043;1073;1131;1032;1136;1024;1125;1060;1047;1089;1079;1026;1095;1053;1097;1057;1040
1073;1055;954;1000;1033;1096;1017;1057;989;1083;1026;1015;1051;1044;1036;1043;1022;1067;1064;1051
1058;1007;919;998;1035;1075;953;1033;965;1099;1013;1000;1049;1048;1047;1009;1006;1062;1040;1029
1052;1027;920;982;1019;1067;976;1047;972;1083;1014;958;1065;1048;1022;1054;1019;1050;1053;1041
1047;1027;952;1025;1076;1100;1013;1068;994;1121;1048;1041;1078;1059;1054;1112;1039;1076;1082;1052
1065;1064;940;1027;1066;1095;1000;1051;996;1117;1069;1018;1076;1065;1051;1088;1035;1073;1076;1043
1063;1056;952;1048;1084;1091;1030;1063;1000;1103;1043;1016;1070;1069;1063;1084;1036;1080;1070;1040
1075;1068;993;1065;1094;1081;1030;1101;1000;1102;1055;1072;1059;1066;1037;1089;1023;1062;1069;1063
1066;1059;964;1042;1071;1083;1003;1062;996;1102;1055;1082;1064;1055;1037;1101;1034;1060;1057;1055
1054;1048;957;1033;1049;1051;1003;1040;992;1103;1046;1017;1077;1044;1061;1097;1031;1073;1073;1064
1118;1072;962;1022;1056;1080;1012;1080;1015;1083;1010;1025;1058;1063;1071;1070;1026;1071;1064;1105
1138;1070;936;992;1015;1055;992;1038;975;1075;1017;1018;1054;1058;1068;1035;1009;1038;1072;1132
1156;1103;974;1006;1043;1100;975;1056;1023;1077;1043;1019;1064;1051;1087;1079;1019;1056;1081;1155
1207;1113;970;998;1043;1091;1013;1069;1034;1091;1052;993;1079;1063;1075;1083;1040;1069;1103;1204
1231;1124;986;1000;1052;1101;1029;1053;1057;1097;1022;1019;1047;1071;1112;1032;1024;1074;1090;1218
1253;1120;988;1009;1044;1074;1023;1048;1067;1085;1018;1009;1063;1069;1098;1056;1019;1048;1080;1214
1236;1130;985;985;1035;1079;1004;1012;1046;1103;1028;1016;1063;1079;1099;1094;1042;1063;1101;1206
1195;1124;1001;1029;1068;1109;1038;1087;1027;1096;1067;1078;1068;1065;1058;1132;1044;1056;1076;1132
1127;1059;930;984;1045;1074;965;1071;942;1034;997;1026;1061;1051;1036;1073;1011;1026;1015;1064
1084;1030;946;992;1049;1076;972;1064;934;1042;1000;996;1061;1032;1058;1043;995;1016;982;996
1050;1023;935;987;1024;1058;977;1062;965;1062;1023;971;1046;1043;1055;1057;1012;1044;1029;993
1030;1034;970;995;1023;1110;989;1065;958;1082;1022;1018;1073;1049;1059;1073;1010;1045;1018;989
1042;1046;990;1021;1056;1107;1017;1064;946;1096;1057;1020;1092;1040;1046;1086;1041;1058;1010;982
1059;1044;994;1012;1059;1087;1039;1069;931;1107;1080;1051;1080;1075;1031;1066;1038;1072;1048;990
1061;1015;978;1011;1043;1074;968;1055;970;1123;1050;1014;1069;1046;1044;1057;1039;1067;1016;967
1041;1012;988;1000;1044;1066;957;1035;949;1089;1038;987;1075;1032;1007;1094;1030;1068;1025;973
1070;1041;983;985;1036;1049;937;1024;950;1073;1013;1021;1082;1030;1028;1083;1039;1060;1041;970
1078;1058;990;999;1044;1072;981;1082;970;1086;1029;1063;1089;1061;1015;1082;1027;1061;1028;968
1077;1052;998;1002;1043;1079;1000;1080;965;1079;1014;1027;1107;1050;1064;1078;1032;1064;1041;977
1106;1081;1011;1005;1039;1114;1015;1073;1013;1103;1053;1033;1103;1077;1098;1097;1068;1094;1094;1038
1120;1095;1045;1034;1071;1117;1015;1082;1010;1121;1068;1108;1111;1086;1087;1115;1090;1107;1089;1056
1148;1106;1058;1064;1096;1159;1018;1104;1038;1120;1083;1090;1110;1110;1104;1119;1080;1110;1086;1103
1192;1101;1041;1050;1088;1125;1037;1102;1053;1144;1096;1091;1129;1129;1124;1151;1115;1115;1135;1169
1275;1164;1113;1120;1138;1176;1108;1127;1081;1195;1155;1129;1146;1150;1110;1187;1157;1168;1177;1219
1269;1176;1107;1103;1123;1204;1070;1096;1105;1186;1135;1087;1144;1136;1135;1198;1132;1174;1181;1248
1341;1228;1152;1121;1147;1189;1081;1153;1158;1177;1122;1121;1119;1112;1091;1180;1118;1140;1172;1216
1268;1161;1101;1068;1105;1167;1069;1097;1097;1114;1051;1106;1114;1115;1113;1154;1081;1121;1165;1194
1237;1143;1074;1058;1082;1149;1041;1103;1054;1116;1076;1079;1111;1122;1085;1125;1063;1100;1099;1130
1185;1095;1061;1043;1089;1144;1025;1073;1043;1127;1079;1049;1120;1105;1086;1107;1070;1106;1105;1093
1174;1110;1058;1064;1109;1146;1063;1102;1055;1141;1097;1114;1105;1097;1072;1135;1087;1111;1112;1093
1087;1060;1029;1023;1068;1120;993;1074;952;1078;1045;1072;1081;1057;1031;1099;1053;1074;1069;1000
1070;1029;1024;1041;1062;1118;1039;1078;952;1124;1093;1013;1089;1055;1040;1107;1075;1094;1072;987
1056;1032;1033;1020;1075;1107;1009;1098;935;1050;1025;1052;1049;1020;1004;1055;1025;1029;1001;943
1051;1044;1036;1027;1060;1069;1009;1049;955;1058;1023;1057;1056;1078;1023;1041;1019;1026;1024;990
1047;1036;1036;1003;1041;1106;1020;1051;962;1043;1007;990;1039;1039;1014;1056;982;1017;976;982
1060;1032;1024;1009;1066;1061;987;1044;944;1057;1035;1014;1087;1024;1004;1094;1046;1057;1042;1011
1041;1043;1040;1011;1077;1068;996;1051;968;1119;1053;1038;1079;1074;1053;1100;1056;1086;1043;1009
1054;1038;1064;1024;1071;1073;1026;1052;995;1079;1040;1051;1084;1046;1018;1067;1017;1060;1001;1007
1060;1035;1036;985;1031;1051;974;1012;959;1058;988;968;1042;1018;1025;1049;992;1042;1011;1026
1060;1037;1036;990;1040;1074;988;1035;962;1051;1013;1039;1029;1026;1010;1061;1016;1050;1020;1012
1058;1038;1056;1016;1072;1072;1005;1068;968;1060;1033;1012;1081;1033;1057;1055;1020;1056;1028;1021
1066;1043;1035;1009;1081;1069;1007;1060;963;1048;1036;1042;1083;1045;1035;1073;1021;1041;1008;1013
1053;1033;1038;1016;1042;1064;1006;1036;946;1024;1023;1036;1048;1040;1038;1060;1034;1026;1011;1018
1062;1024;1023;984;1022;1082;976;1053;962;1052;1026;1037;1067;1033;1053;1064;1017;1018;1041;1057
1109;1070;1062;997;1038;1122;976;1016;1001;1066;1039;999;1083;1040;1083;1092;1044;1053;1067;1139
1186;1111;1095;1035;1073;1128;1018;1060;1049;1100;1065;1055;1073;1082;1098;1066;1053;1083;1101;1182
1196;1073;1052;983;1036;1098;1001;1041;1024;1088;1043;1014;1079;1060;1102;1074;1037;1063;1079;1190
1231;1114;1095;1002;1051;1120;1046;1058;1054;1104;1047;1046;1087;1057;1100;1113;1053;1089;1110;1253
1247;1123;1100;1029;1067;1160;1005;1091;1064;1146;1091;1043;1115;1082;1115;1129;1078;1131;1148;1234
1228;1105;1112;1056;1106;1098;1008;1076;1061;1169;1103;1066;1072;1031;1015;1138;1054;1100;1085;1182
1219;1128;1143;1076;1128;1159;1064;1107;1088;1171;1091;1049;1087;1052;1090;1132;1061;1103;1101;1187
1157;1111;1141;1083;1123;1121;1066;1124;1048;1116;1048;1045;1056;1033;1049;1089;1031;1064;1045;1100
1119;1094;1118;1058;1114;1138;1026;1132;1012;1109;1059;1087;1081;1065;1066;1095;1059;1075;1058;1082
1059;1047;1059;1014;1043;1114;992;1029;974;1113;1035;1043;1069;1052;1047;1074;1034;1091;1024;1023
1072;1055;1087;1023;1062;1092;1020;1065;977;1116;1053;1045;1068;1071;1032;1056;1057;1082;1036;1020
1072;1052;1087;1029;1055;1071;1016;1048;971;1068;1022;1035;1071;1081;1063;1023;1008;1046;1032;998
1023;1038;1064;1007;1052;1072;1009;1092;966;1041;1017;987;1054;1032;1020;1034;985;1022;983;976
1012;999;1048;989;1033;1042;991;1039;937;1048;1016;1002;1072;1042;1034;1059;1009;1034;1034;979
1031;1019;1041;991;1050;1046;993;1056;944;1084;1039;1040;1083;1035;1046;1098;1040;1094;1025;1007
1028;1009;1019;989;1047;1009;975;1043;933;1074;1044;1046;1044;1017;1006;1064;1004;1049;993;968
1034;1018;1027;1036;1061;1033;985;1007;963;1049;1008;1005;1052;1031;1069;1042;1003;1038;983;966
1068;1052;1077;1009;1058;1064;1016;1057;966;1038;1016;1057;1048;1017;1022;1054;1025;1045;989;979
1015;1011;1020;1005;1053;1063;999;1103;952;1050;1028;1070;1084;1050;1053;1063;1026;1052;1012;954
1053;1029;1064;1002;1063;1087;1019;1081;977;1101;1071;1025;1090;1055;1043;1074;1044;1057;1043;970
1083;1037;1059;1030;1074;1076;1040;1089;1011;1112;1075;1059;1068;1052;1052;1054;1024;1077;1071;1016
1078;1069;1071;1032;1085;1100;1013;1074;1029;1092;1058;1051;1082;1067;1067;1059;1015;1045;1024;980
1056;1044;1053;1012;1065;1087;1019;1043;994;1095;1066;1024;1091;1075;1081;1105;1037;1066;1046;1010
1122;1071;1074;1024;1071;1109;1020;1095;1022;1081;1039;1011;1059;1045;1059;1068;1017;1047;1039;1055
1160;1075;1059;1018;1076;1096;986;1117;1025;1072;1046;1040;1078;1078;1102;1051;1024;1056;1039;1058
1216;1111;1062;1006;1051;1072;1020;1087;1057;1072;1032;1039;1087;1070;1075;1048;1018;1053;1044;1096
1208;1074;1021;1006;1059;1067;969;1044;1043;1078;1013;1000;1029;1010;1045;1040;1008;1043;1032;1094
1230;1124;1085;1050;1091;1130;1036;1108;1039;1109;1061;1092;1097;1072;1061;1096;1061;1087;1085;1110
1194;1109;1050;1047;1069;1103;1038;1096;1025;1088;1040;1027;1119;1082;1094;1085;1064;1089;1053;1083
1112;1050;1058;1023;1064;1093;1031;1091;963;1084;1046;1030;1097;1062;1043;1097;1051;1049;1036;979
1061;1031;1010;992;1031;1088;987;1053;910;1067;1033;987;1059;1057;1035;1065;1022;1036;1006;957
1014;1012;993;1005;1046;953;1007;1082;937;1055;1038;1030;1078;1041;1055;1082;1020;1051;1015;967
1040;1035;1014;998;1034;905;1000;1061;971;1058;1035;998;1078;1039;1047;1057;1016;1042;1030;963
1061;1028;1018;999;1032;902;1008;1048;970;1067;1031;1044;1062;1056;1060;1041;1034;1058;1030;959
1055;1039;1033;1007;1034;924;1022;1073;951;1084;1023;1007;1079;1048;1066;1055;1026;1055;1054;978
1051;1046;1030;1009;1044;964;1035;1075;982;1087;1001;1027;1063;1051;1052;1085;1046;1071;1068;992
1070;1075;1042;1015;1049;988;1041;1077;992;1118;1031;1049;1065;1064;1047;1062;1026;1075;1077;993
1073;1067;1046;1024;1044;1010;1012;1064;999;1104;1024;1021;1056;1055;1095;1074;1056;1112;1112;1017
1065;1069;1088;1060;1090;1044;1070;1127;1020;1113;1047;1042;1101;1052;1058;1080;1042;1075;1039;995
1074;1079;1063;1045;1078;1053;1024;1057;1004;1113;1073;1044;1106;1052;1065;1102;1055;1091;1047;1007
1067;1096;1072;1038;1069;1108;1022;1079;999;1102;1044;1037;1083;1039;1050;1065;1042;1074;1057;1044
1054;1066;1028;1007;1025;1047;1007;1059;993;1082;1032;1026;1089;1050;1066;1077;1040;1063;1042;1023
1087;1060;1018;1004;1047;1009;996;1049;959;1076;1022;1004;1055;1037;1021;1037;1015;1058;1024;1017
1122;1100;1033;1001;1039;1077;1037;1100;974;1087;1031;1054;1081;1071;1075;1057;1044;1090;1062;1036
1100;1073;1000;1013;1057;1089;1019;1087;969;1088;1054;1019;1079;1040;1054;1097;1054;1105;1061;1055
1100;1072;1022;1047;1092;1094;1045;1085;988;1106;1034;1050;1085;1062;1066;1131;1065;1101;1066;1058
1118;1069;1027;1041;1099;1217;1029;1099;979;1134;1109;1065;1122;1067;1068;1144;1102;1126;1094;1081
1095;1067;1031;1046;1095;1344;1034;1099;996;1121;1083;1062;1120;1080;1084;1140;1115;1122;1126;1099
1165;1124;1080;1103;1130;1345;1080;1102;1034;1173;1141;1047;1118;1102;1109;1144;1133;1152;1110;1139
1147;1113;1075;1058;1115;1303;1053;1130;1032;1127;1099;1108;1103;1089;1058;1125;1076;1118;1112;1143
1156;1130;1057;1053;1072;1129;1049;1079;1008;1103;1064;1040;1077;1060;1069;1073;1053;1100;1099;1136
1162;1093;1028;1036;1053;1001;1040;1090;1015;1083;1016;985;1035;1041;1050;1030;1012;1057;1066;1126
1143;1066;1019;993;1028;986;1013;1021;986;1091;1025;970;1071;1075;1072;1025;1023;1069;1090;1114
1134;1086;1043;1029;1061;1036;1023;1086;1009;1085;1033;965;1081;1042;1074;1048;998;1054;1061;1099
1115;1091;1024;1000;1040;1021;1028;1082;978;1065;1027;986;1070;1048;1043;1062;998;1045;1049;1075
1101;1055;1016;1011;1063;1027;1013;1092;997;1111;1074;1031;1105;1086;1117;1077;1045;1087;1073;1079
1083;1046;976;991;1024;1252;977;1062;985;1094;1056;1007;1123;1102;1082;1098;1053;1099;1080;1088
1112;1072;1005;1023;1049;1266;1010;1062;1038;1077;1022;1044;1080;1061;1084;1094;1050;1091;1110;1125
1158;1097;999;1022;1048;1259;993;1073;1030;1080;1036;1057;1084;1079;1069;1087;1037;1087;1091;1137
1241;1153;1059;1040;1077;1281;1028;1132;1056;1114;1078;1101;1130;1104;1107;1131;1096;1117;1188;1249
1247;1144;1040;1038;1075;1221;1015;1120;1074;1132;1077;1031;1107;1104;1151;1101;1095;1129;1185;1266
1294;1158;1048;1021;1061;1215;1002;1098;1088;1113;1061;1015;1091;1097;1165;1088;1075;1116;1158;1303
1276;1167;1033;1017;1050;1215;1011;1079;1084;1108;1052;1023;1100;1102;1159;1083;1077;1111;1166;1284
1264;1156;1049;1022;1035;1108;986;1025;1055;1103;1032;1015;1074;1069;1092;1063;1027;1065;1096;1195
1134;1085;993;1003;1050;953;1012;1082;982;1099;1079;1022;1083;1068;1073;1117;1055;1100;1073;1104
1141;1105;1046;1053;1074;907;1032;1082;990;1108;1062;1071;1084;1081;1082;1077;1051;1095;1065;1062
1022;1038;972;1006;1056;880;994;1034;924;1031;998;1008;1057;1027;1026;1033;986;1003;978;966
1047;1042;994;1014;1064;913;1002;1036;954;1046;1003;1015;1067;1045;1041;1051;1030;1043;1039;977
1028;1048;1006;1030;1070;908;1037;1071;961;1098;1066;1067;1092;1070;1040;1113;1072;1089;1069;1006
1058;1072;1030;1064;1088;927;1030;1091;972;1093;1066;1040;1106;1056;1065;1115;1068;1093;1068;1030
1050;1054;998;1017;1053;980;1001;1049;984;1093;1058;1015;1108;1056;1071;1081;1047;1080;1047;1061
1078;1084;1034;1041;1088;988;1021;1077;985;1109;1049;1058;1075;1068;1029;1088;1054;1084;1070;1074
1063;1084;1043;1037;1064;1047;1016;1089;969;1088;1072;1044;1093;1055;1076;1079;1050;1083;1036;1056
1034;1042;1016;1012;1061;1071;984;1104;943;1102;1083;1011;1118;1055;1042;1127;1074;1071;1037;1011
1030;1022;1004;1012;1067;1055;988;1072;926;1051;1041;1023;1092;1062;1037;1063;1035;1034;1025;1011
1036;1036;981;993;1055;1270;1016;1085;941;1053;1030;1037;1068;1032;1053;1031;1001;1032;991;1027
1038;1052;1014;1033;1068;1295;1041;1099;946;1048;1051;1019;1079;1025;1023;1074;1012;1033;1013;1026
1073;1054;1006;1024;1073;1281;1039;1080;997;1071;1028;1047;1074;1056;1067;1088;1040;1080;1074;1059
1093;1074;1016;1023;1053;1233;1016;1035;995;1092;1052;1050;1078;1070;1057;1089;1022;1065;1045;1050
1081;1041;1009;1015;1053;1208;1017;1051;973;1031;997;997;1078;1057;1082;1050;986;1037;1026;1035
1095;1075;1012;1022;1049;1218;1015;1099;998;1062;1022;1031;1074;1083;1059;1079;1020;1068;1075;1061
1093;1064;1007;1020;1043;1207;1018;1093;1013;1050;1011;1032;1077;1065;1063;1055;1017;1061;1065;1065
1074;1046;999;1011;1043;1153;979;1086;1013;1056;1005;1060;1068;1074;1075;1054;1011;1059;1039;1094
1111;1065;1004;1024;1046;1124;1008;1041;1024;1076;1039;1037;1069;1066;1061;1047;1007;1057;1043;1113
1170;1086;1023;1033;1046;1127;1026;1045;1048;1068;1014;1053;1106;1073;1071;1050;1012;1063;1057;1139
1150;1085;1012;998;1018;1122;1013;1052;1059;1079;1027;995;1089;1053;1078;1088;1017;1079;1064;1158
1226;1155;1102;1052;1081;1132;1052;1120;1097;1103;1038;1065;1087;1067;1073;1083;1021;1071;1106;1188
1236;1142;1098;1045;1071;1109;1030;1065;1072;1097;1048;1070;1099;1072;1111;1072;1022;1070;1093;1164
1213;1128;1064;1006;1043;1018;1043;1062;1023;1063;1038;1027;1071;1065;1053;1068;1005;1041;1039;1113
1151;1068;1031;987;1016;952;1023;1047;976;1041;1001;997;1077;1051;1067;1078;1020;1061;1038;1090
1111;1043;1019;1009;1039;958;1015;1071;943;1063;1029;1045;1070;1059;1024;1106;1028;1055;1035;1055
1097;1092;1084;1051;1096;982;1086;1101;970;1083;1024;1070;1081;1053;1032;1081;1037;1066;1022;1015
1058;1045;1046;1010;1032;950;1010;1057;987;1079;998;983;1069;1022;1048;1064;1007;1054;998;1007
1030;1018;1046;1031;1058;961;1043;1058;965;1111;1069;1038;1105;1066;1045;1102;1044;1080;1035;1016
1027;1051;1075;1048;1068;1016;1023;1076;974;1119;1064;1047;1100;1068;1075;1105;1054;1080;1036;1029
1019;1038;1031;1003;1030;1013;1016;1055;989;1113;1065;968;1070;1036;1049;1077;1033;1080;1061;1012
1071;1049;1053;1005;1036;1020;1017;1063;994;1105;1023;1006;1058;1036;1055;1037;1033;1068;1053;998
1039;1019;1034;994;1031;1002;1010;1023;954;1104;1063;1016;1099;1076;1048;1082;1046;1056;1039;988
1033;1020;1039;1015;1055;1003;1005;1039;948;1068;1037;1030;1066;1034;1007;1080;1003;1039;1001;981
1067;1040;1077;1030;1069;979;1022;1027;969;1092;1043;1027;1085;1042;1042;1095;1007;1049;1025;1017
1082;1064;1058;1025;1056;1008;992;1034;974;1067;1042;1048;1078;1048;1032;1112;1024;1070;1023;1012
1093;1053;1063;1029;1070;1060;1039;1079;1005;1087;1056;1053;1084;1049;1064;1082;1026;1061;1031;1025
1093;1038;1075;1031;1071;1022;1016;1093;991;1084;1058;1067;1089;1044;1045;1113;1041;1063;1013;1006
1058;1041;1076;1027;1068;1042;1002;1078;982;1095;1069;1099;1098;1076;1051;1127;1057;1070;1056;1019
1045;1030;1035;1018;1056;1033;993;1084;960;1085;1064;1059;1100;1059;1080;1100;1058;1063;1056;1018
1067;1054;1091;1060;1092;1018;1041;1064;986;1115;1089;1084;1092;1074;1059;1110;1075;1097;1077;1024
1094;1074;1078;1021;1041;1033;1036;1034;991;1119;1055;1057;1085;1066;1062;1085;1068;1079;1076;1010
1107;1088;1086;1050;1084;1074;1036;1085;995;1112;1055;1061;1089;1077;1076;1085;1058;1085;1056;997
1095;1072;1075;1053;1087;1064;1041;1126;973;1081;1059;1064;1077;1049;1033;1117;1047;1058;1029;969
1090;1066;1096;1060;1090;1055;1024;1075;988;1071;1037;1083;1075;1053;1053;1076;1048;1064;1030;946
1086;1079;1103;1046;1079;1067;1052;1103;984;1064;1042;1103;1094;1046;1021;1107;1051;1066;1018;917
1065;1055;1031;1006;1048;1033;985;1070;949;1041;1035;1081;1090;1044;1022;1095;1038;1047;998;965
1054;1042;1051;1019;1062;1060;991;1058;963;1042;1048;1085;1078;1037;1030;1095;1026;1053;1010;943
1039;1034;1034;1011;1063;1058;998;1059;956;1084;1071;1062;1107;1090;1055;1134;1067;1082;1035;963
1062;1042;1059;1032;1077;1066;1038;1078;987;1080;1063;1042;1084;1097;1046;1094;1065;1076;1046;993
1096;1047;1070;1067;1100;1066;1054;1136;980;1085;1086;1110;1095;1064;1052;1093;1068;1064;1053;996
1073;1057;1076;1054;1102;1092;1054;1113;991;1083;1066;1056;1094;1053;1050;1119;1050;1046;1036;1013
1201;1135;1143;1084;1120;1149;1089;1102;1109;1117;1071;1092;1078;1065;1076;1122;1065;1077;1108;1109
1253;1167;1157;1065;1092;1165;1079;1090;1143;1158;1078;1070;1092;1094;1114;1099;1076;1095;1151;1181
1372;1248;1221;1092;1106;1179;1095;1117;1194;1223;1128;1080;1113;1128;1137;1153;1119;1146;1225;1299
1373;1209;1173;1065;1076;1116;1049;1065;1199;1199;1086;1021;1047;1057;1106;1126;1068;1120;1206;1304
1390;1236;1193;1082;1091;1164;1072;1107;1209;1184;1106;1101;1086;1119;1126;1154;1103;1155;1228;1322
1377;1228;1181;1077;1100;1194;1071;1100;1144;1175;1091;1044;1082;1115;1112;1113;1106;1151;1210;1266
1298;1166;1128;1043;1061;1133;1063;1073;1098;1178;1088;993;1106;1119;1118;1125;1093;1128;1159;1171
1186;1119;1101;1042;1050;1085;1050;1069;1052;1090;1007;1010;1030;1046;1032;1049;1031;1076;1073;1047
1106;1099;1091;1054;1069;1110;1054;1070;1018;1102;1034;1016;1065;1025;1041;1068;1017;1047;1042;986
1009;1017;1014;1021;1040;1060;997;1088;956;1058;1038;1006;1084;1041;1016;1074;1030;1038;1014;957
1046;1032;1040;1027;1060;1065;1035;1086;951;1101;1052;1041;1072;1048;1042;1051;1045;1072;1025;939
1024;1032;1039;1039;1066;1035;1010;1050;971;1055;1046;1045;1070;1039;1032;1054;1025;1038;987;903
1041;1033;1035;1030;1058;1068;1025;1044;942;1058;1011;1000;1059;1030;1028;1079;1030;1033;1011;953
1019;1020;1013;993;1027;1071;1002;1064;949;1056;1029;1007;1051;1039;1018;1032;1011;1010;1009;944
1060;1063;1047;1006;1023;1158;1027;1084;979;1051;1021;1029;1045;1033;1017;1053;1007;991;998;942
1060;1023;1024;988;1034;1136;1004;1070;964;1038;1011;980;1050;1033;1043;1017;993;988;987;931
1031;1032;1018;1006;1032;1097;1015;1068;972;1055;1029;1007;1050;1025;1036;1041;1016;1035;1026;950
1047;1061;1045;1008;1044;1145;993;1062;1000;1094;1038;1049;1071;1052;1035;1071;1041;1063;1079;964
1056;1031;1044;1027;1031;1090;993;1043;1010;1119;1066;1016;1096;1048;1071;1086;1058;1087;1092;1024
1116;1080;1065;1046;1054;1110;1015;1064;1011;1126;1072;1040;1114;1086;1044;1093;1076;1095;1099;1027
1095;1050;1020;1011;1040;1078;992;1058;961;1106;1101;1039;1116;1106;1102;1114;1100;1106;1114;1050
1074;1044;1026;1024;1061;1256;997;1058;991;1113;1086;1042;1111;1110;1090;1106;1087;1107;1080;1061
1092;1044;1003;1004;1031;1314;1001;1020;973;1114;1070;995;1096;1082;1089;1116;1062;1091;1101;1106
1200;1107;1042;1009;1045;1282;1007;1055;1029;1097;1041;978;1102;1104;1128;1091;1052;1094;1125;1193
1272;1155;1057;992;1039;1237;1017;1039;1068;1150;1067;999;1083;1077;1058;1103;1039;1101;1142;1201
1287;1148;1069;1034;1059;1243;1019;1053;1097;1150;1088;1003;1120;1120;1163;1111;1076;1128;1175;1232
1333;1182;1119;1063;1084;1300;1069;1099;1103;1118;1095;1075;1129;1138;1141;1146;1099;1131;1192;1287
1337;1196;1146;1080;1090;1263;1066;1127;1122;1147;1091;1072;1104;1121;1139;1100;1096;1128;1199;1295
1352;1204;1143;1086;1096;1238;1095;1106;1160;1186;1121;1046;1097;1127;1144;1125;1104;1152;1202;1282
1228;1143;1108;1023;1045;1165;1025;1044;1063;1122;1053;1009;1067;1108;1089;1049;1043;1088;1114;1169
1193;1073;1090;1035;1066;1133;1058;1091;1009;1115;1067;1036;1095;1068;1049;1072;1064;1086;1072;1098
1117;1054;1071;1006;1035;1115;1010;1023;993;1086;1037;993;1070;1057;1016;1069;1014;1039;1039;1042
1036;1021;1010;984;1018;1078;995;1031;931;1070;1030;987;1052;1039;1011;1095;1018;1034;1017;1023
1028;1020;1010;974;1026;1081;1009;1042;928;1050;1026;983;1067;1035;1012;1048;994;1018;954;971
1005;1001;1026;968;1000;1081;979;973;914;1003;960;924;1049;1029;1028;1022;973;996;986;994
995;982;997;948;968;1066;959;974;885;991;972;930;1028;1016;984;1011;952;982;958;951
1020;1011;1001;963;987;1086;991;1016;886;1035;1010;984;1078;1027;1006;1060;995;1030;996;937
1022;1007;989;978;998;1071;975;1011;909;1043;1013;939;1064;1014;1030;1055;978;1000;977;977
1029;1007;1009;965;979;1071;990;1038;935;1061;1017;921;1052;1018;1025;1043;1028;1024;1026;997
1075;1043;1020;979;1010;1054;1002;1018;957;1074;1047;1010;1079;1055;1037;1073;1045;1047;1020;1009
1050;1015;1031;997;1041;1097;1030;1063;961;1021;1027;996;1051;1034;1046;1081;998;1022;970;973
1036;977;982;971;1013;1024;981;1048;918;1023;994;935;1008;1006;1021;1003;959;975;976;1006
1086;986;982;960;1000;1031;979;1039;938;1030;981;965;1019;1031;1051;982;969;988;975;998
1050;1013;997;976;1034;1034;970;1038;921;1041;1038;1019;1069;1023;1024;1057;1016;1008;975;994
1071;1037;1022;997;1037;1045;981;1053;961;1018;1002;1033;1077;1035;1042;1067;1011;1015;982;1025
1097;1028;1021;989;1034;1036;1005;1062;977;1007;1004;1048;1060;1061;1027;1052;988;986;981;1001
1086;1036;1035;957;1016;1051;980;1088;990;1066;1014;1039;1050;1064;1060;1034;1015;1048;1066;1074
1119;1069;1067;1009;1069;1091;1024;1106;1038;1126;1073;1030;1078;1060;1088;1086;1077;1091;1086;1088
1148;1099;1095;1056;1098;1097;1037;1106;1041;1121;1087;1070;1117;1074;1083;1150;1092;1089;1096;1121
1113;1065;1056;1018;1073;1050;972;1089;1028;1111;1048;1049;1103;1077;1088;1102;1055;1065;1081;1105
1047;1050;1068;1040;1061;871;1016;1114;1021;1100;1044;1024;1083;1075;1071;1083;1052;1066;1049;1085
1116;1084;1102;1065;1100;907;1039;1109;1034;1126;1078;1090;1082;1089;1052;1077;1073;1074;1069;1084
1101;1068;1091;1088;1111;923;1082;1133;1009;1091;1066;1078;1076;1064;1062;1069;1051;1065;1046;1036
1087;1057;1079;1078;1124;939;1068;1132;982;1088;1051;1081;1094;1054;1048;1119;1060;1069;1040;1025
1099;1040;1047;1030;1075;964;1023;1067;981;1040;987;1032;1064;1042;1038;1065;1019;1022;1022;1024
1139;1105;1094;1059;1078;995;1019;1057;1024;1080;1029;1055;1066;1043;1037;1064;1019;1029;1045;1047
1139;1095;1053;1039;1069;997;1016;1070;1045;1090;1024;1020;1078;1055;1051;1071;1018;1042;1067;1076
1156;1082;1034;1019;1060;990;1010;1067;1028;1094;1060;1032;1091;1068;1090;1083;1047;1069;1086;1107
1194;1106;1063;1026;1074;1022;997;1072;1049;1079;1050;1098;1098;1085;1082;1098;1058;1075;1089;1154
1286;1172;1133;1087;1121;1102;1033;1111;1103;1111;1066;1093;1076;1092;1108;1099;1068;1085;1124;1234
1327;1167;1106;1055;1078;1061;1035;1062;1113;1136;1075;1048;1071;1092;1091;1094;1088;1089;1130;1257
1280;1137;1048;1020;1038;1065;1008;1052;1058;1095;1028;1005;1069;1083;1093;1036;1038;1061;1136;1217
1218;1113;1025;975;1003;1066;992;1055;1050;1084;1040;996;1096;1067;1078;1090;1041;1055;1096;1164
1162;1099;1033;1033;1066;1062;1021;1031;1018;1104;1061;1039;1086;1074;1042;1103;1063;1072;1055;1070
1069;1050;999;1007;1061;1036;991;1054;978;1088;1029;1017;1083;1058;1026;1104;1051;1057;1028;1021
1063;1046;985;998;1041;1044;977;1070;954;1074;1041;1018;1078;1044;1034;1081;1051;1039;1001;960
1059;1028;966;984;1038;1042;963;1035;923;1049;1029;968;1091;1044;1057;1084;1049;1027;1015;975
1058;1055;1001;1017;1066;1062;1007;1109;959;1044;1032;1059;1054;1041;1011;1080;1027;1028;1002;975
1080;1070;1003;997;1042;1076;952;1032;940;1056;1039;1022;1068;1062;1006;1075;1024;1047;1048;1007
1083;1057;1010;1017;1053;1096;1011;1090;982;1044;1016;996;1055;1047;1044;1064;1015;1023;1009;987
1058;1012;983;1001;1042;1068;1002;1048;953;1048;1012;992;1075;1052;1024;1067;1025;1048;1036;1018
1083;1047;980;987;1025;1101;1010;1045;958;1047;1011;1015;1064;1067;1049;1043;1010;1035;1034;1020
1065;1050;996;1009;1041;1135;1011;1065;966;1050;1020;999;1063;1045;1047;1099;1012;1036;1019;1009
1080;1062;1005;1015;1046;1097;1004;1080;978;1067;1015;974;1053;1055;1040;1062;1000;1031;1020;988
1064;1059;993;1011;1034;1075;977;1044;976;1066;1007;951;1047;1058;1065;1023;1005;1050;1021;989
1062;1019;1008;1019;1049;1070;999;1087;951;1060;1026;1004;1066;1059;1025;1059;1013;1027;995;973
1034;1009;972;1010;1064;1056;1017;1084;935;1029;1021;1000;1061;1037;1015;1072;1002;1009;994;985
1049;1024;947;1005;1050;1052;983;1084;927;1015;1030;1040;1071;1044;997;1087;1004;1018;999;1004
1046;1023;928;969;1004;1062;948;1048;906;1026;1022;977;1075;1044;1058;1076;1010;1025;1015;1022
1074;1043;1003;1004;1050;1145;1014;1085;975;992;960;1027;1039;996;1024;1048;965;973;959;975
1073;1035;981;1013;1053;1076;1013;1058;971;1015;1016;1015;1050;991;1016;1056;991;1009;975;987
1062;1051;993;1032;1055;1143;975;1104;980;1027;993;1034;1071;1009;1041;1057;985;1005;994;965
1040;1056;988;999;1040;1099;1013;1070;948;1009;998;993;1059;1007;1036;1087;1004;992;971;976
1077;1049;996;1005;1053;1069;1012;1040;916;1019;988;1029;1049;1031;1038;1037;1012;1010;981;977
1120;1088;1027;1024;1064;1102;1012;1080;1026;1056;1011;1093;1048;1053;1068;1044;1022;1030;1033;1004
1163;1121;1040;1022;1071;1077;990;1074;1019;1080;1039;1048;1046;1051;1033;1110;1033;1060;1083;1033
1159;1121;1059;1033;1058;1105;1016;1043;1036;1104;1065;1028;1077;1058;1084;1117;1048;1060;1089;1103
1156;1113;1046;1020;1043;1073;998;1052;1006;1087;1073;1028;1034;1016;1009;1107;1019;1026;1018;1038
1136;1098;1023;1014;1036;1086;1018;1049;995;1082;1059;980;1076;1050;1085;1100;1041;1042;1047;1037
1135;1126;1081;1042;1071;1110;1032;1127;1014;1102;1065;1038;1088;1034;1067;1107;1046;1070;1077;1038
1141;1121;1065;1010;1075;1097;1010;1113;996;1103;1090;1067;1110;1067;1058;1129;1058;1088;1094;1066
1146;1135;1089;1045;1073;1105;1011;1120;1020;1097;1062;1072;1107;1070;1088;1124;1069;1078;1080;1049
1169;1135;1099;1044;1103;1069;1035;1099;1038;1102;1070;1085;1090;1077;1047;1118;1061;1080;1060;1036
1123;1069;1054;1018;1070;1039;1008;1068;1012;1094;1077;1075;1106;1096;1062;1110;1054;1053;1059;1049
1095;1089;1071;1041;1095;1055;1016;1071;1025;1121;1109;1044;1102;1054;1061;1152;1065;1075;1040;1060
1093;1068;1074;1037;1049;1041;1001;1096;988;1076;1028;1035;1066;1010;1009;1122;1037;1058;1026;1014
1107;1094;1081;1042;1068;1061;1012;1100;1022;1088;1057;1044;1082;1067;1067;1121;1047;1066;1067;1057
1083;1077;1067;1017;1072;1118;1002;1078;1002;1049;1033;1030;1045;1019;1017;1068;998;1037;994;999
1084;1069;1063;1023;1058;1311;1022;1061;1005;1048;1000;993;1034;1039;1071;1025;1004;1044;1031;1030
1085;1053;1052;995;1033;1305;971;1035;981;1033;983;1023;1056;1037;1021;1047;1002;1039;1021;1029
1055;1028;1046;998;1041;1286;968;1080;983;1035;994;1058;1067;1047;1043;1056;1003;1043;991;1024
1064;1024;1029;1012;1068;1244;1005;1085;961;1016;1001;1003;1080;1028;1044;1057;976;1022;969;992
1060;1033;1010;972;1014;1198;976;1043;966;1042;1006;1004;1078;1060;1056;1055;1013;1046;1028;1023
1040;1041;991;956;993;1204;947;1008;952;1024;982;993;1075;1034;1080;1054;979;1008;990;1031
1080;1092;1051;1014;1046;1203;1030;1065;1018;1118;1074;1029;1113;1067;1069;1103;1037;1055;1088;1052
1108;1108;1059;1001;1039;1152;1003;1076;1029;1113;1022;977;1057;1068;1080;1071;1027;1086;1100;1083
1125;1114;1071;1027;1047;1172;1050;1073;1066;1152;1063;1003;1080;1088;1097;1059;1038;1102;1120;1091
1124;1115;1042;1019;1051;1106;1008;1084;1026;1126;1072;1013;1081;1091;1075;1090;1040;1091;1094;1075
1149;1131;1056;1020;1042;1100;998;1014;1049;1130;1022;983;1024;1012;1043;1063;1004;1053;1062;1062
1155;1125;1043;1026;1055;1110;1019;1085;1033;1109;1056;1044;1074;1072;1055;1092;1033;1078;1088;1105
1161;1127;1046;1025;1062;1134;1043;1078;1011;1109;1065;1012;1106;1094;1102;1081;1054;1086;1084;1109
1184;1108;1049;1034;1033;1129;1028;1058;1043;1065;1030;973;1050;1030;1058;1051;1014;1072;1067;1133
1205;1114;1030;1032;1049;1153;1018;1078;1041;1087;1059;1014;1087;1096;1112;1080;1054;1093;1119;1200
1256;1141;1047;1045;1070;1146;1025;1134;1103;1138;1100;1036;1101;1110;1140;1120;1082;1133;1149;1270
1283;1167;1062;1061;1102;1138;1044;1098;1141;1141;1101;1070;1126;1113;1124;1139;1091;1138;1165;1311
1316;1170;1057;1055;1089;1109;1027;1085;1136;1147;1093;1093;1094;1121;1121;1105;1074;1131;1152;1305
1249;1130;1026;1039;1090;1127;1028;1079;1078;1080;1063;1047;1092;1087;1100;1078;1034;1086;1090;1176
1174;1059;980;994;1033;1056;986;1045;1004;1049;1019;998;1088;1053;1039;1093;1029;1076;1053;1166
1111;1038;979;1009;1068;1065;1000;1111;982;1050;1064;1036;1087;1064;1052;1100;1020;1058;1022;1063
1043;1045;993;1007;1058;1045;990;1036;973;1037;1044;998;1075;1038;1053;1086;1017;1046;1027;1030
1037;1035;972;992;1028;903;1000;1027;954;1066;1027;989;1080;1022;1036;1064;1006;1025;979;955
1027;1032;984;1042;1068;940;1023;1113;968;1067;1026;1016;1065;1029;993;1040;1016;1037;982;939
778;758;746;799;928;595;698;828;884;1056;850;779;762;666;710;951;749;800;775;755
913;905;855;889;979;853;889;959;900;1042;940;938;1023;1010;1029;1013;982;999;1014;972
1071;1084;993;1037;1073;1080;1056;1118;955;1051;1055;1036;1173;1143;1094;1110;1083;1064;1047;1046
1064;1076;994;1049;1084;1061;1060;1132;943;1065;1050;1068;1146;1091;1065;1129;1073;1070;1034;1045
1041;1020;941;975;1020;997;987;1068;939;1037;1034;1011;1107;1095;1073;1068;1048;1060;1031;1012
1061;1043;974;998;1025;1049;1006;1042;948;1017;1009;978;1076;1069;1067;1049;1022;1032;1019;1006
1079;1075;994;1012;1042;1063;1005;1040;962;1064;1034;985;1090;1068;1080;1073;1042;1057;1040;1046
1075;1080;984;999;1028;1087;1012;1105;978;1068;1028;1038;1095;1062;1024;1083;1044;1051;1050;1050
1100;1088;1010;1003;1058;1108;969;1119;999;1064;1038;1058;1097;1071;1081;1093;1045;1063;1074;1047
1094;1074;1008;1010;1059;1090;1025;1099;1011;1096;1070;1040;1105;1057;1062;1124;1062;1074;1072;1054
1091;1062;995;1007;1059;1059;875;1098;994;1068;1049;1054;1087;1036;1060;1058;1059;1073;1056;1044
1084;1076;990;1005;1041;1120;818;1047;1016;1073;1041;1022;1093;1035;1073;1072;1045;1054;1048;1062
1109;1074;973;994;1030;1094;839;1030;1001;1100;1065;1004;1089;1040;1029;1088;1035;1048;1048;1053
1110;1077;1012;998;1059;1093;890;1063;1021;1110;1058;1056;1070;1044;1058;1060;1046;1071;1075;1052
1105;1056;979;996;1025;1071;889;1026;996;1076;1013;990;1067;1057;1039;1041;1010;1050;1044;1032
1108;1051;992;992;1020;1064;944;1056;1003;1057;1017;1009;1073;1059;1041;1053;1005;1036;1046;1072
1106;1030;983;952;996;1017;906;988;1013;1090;987;942;1030;1004;1024;1052;1002;1048;1051;1052
1114;1048;1010;981;1027;1080;940;1085;1017;1106;1038;1040;1088;1066;1047;1088;1036;1097;1077;1081
1098;1068;1008;1018;1071;1106;970;1087;1054;1110;1064;1037;1126;1103;1126;1085;1071;1127;1097;1109
1118;1072;1021;1035;1087;1078;1009;1092;1040;1099;1055;1047;1127;1083;1099;1102;1071;1082;1071;1109
1114;1066;1027;1024;1074;1082;990;1090;1016;1067;1028;1026;1073;1049;1072;1056;1029;1038;1045;1094
1179;1102;1030;1044;1095;1140;1036;1105;1063;1110;1066;1069;1117;1096;1114;1137;1079;1088;1093;1179
1268;1165;1067;1045;1085;1179;1025;1102;1107;1121;1089;1033;1127;1099;1102;1136;1069;1106;1107;1255
1316;1182;1081;1060;1103;1165;1055;1142;1114;1108;1056;1093;1100;1120;1103;1073;1057;1116;1106;1233
1324;1188;1110;1057;1088;1170;1084;1087;1145;1158;1109;1063;1147;1154;1122;1134;1092;1158;1131;1233
1293;1173;1097;1055;1078;1152;1045;1090;1114;1136;1073;1031;1100;1115;1093;1139;1091;1139;1148;1212
1284;1190;1112;1084;1119;1193;1141;1108;1123;1174;1126;1089;1133;1124;1090;1157;1121;1137;1139;1164
1230;1142;1062;1057;1084;1118;1070;1098;1062;1116;1066;1032;1102;1071;1064;1106;1069;1072;1061;1115
1118;1062;1007;997;1059;1101;1017;1047;956;1091;1082;1014;1120;1061;1059;1123;1070;1076;1060;1039
1076;1035;975;976;1020;1085;980;1067;927;1060;1055;1035;1102;1074;1037;1124;1059;1069;1057;1033
1098;1079;1039;1024;1091;1138;1039;1085;977;1043;1035;1086;1067;1057;1015;1093;1020;1028;1000;972
1026;1034;1019;1007;1066;1116;1004;1060;943;1084;1061;1052;1108;1062;1049;1109;1041;1047;998;971
1063;1064;1028;1028;1080;1093;1027;1111;952;1084;1057;1062;1079;1081;1029;1080;1063;1075;1015;973
1051;1047;1033;1032;1076;1096;1050;1095;969;1101;1045;1075;1096;1077;1064;1079;1051;1054;1051;1003
1040;1049;1025;1028;1073;1083;999;1070;970;1080;1046;1038;1090;1056;1022;1092;1045;1036;1023;991
1017;1028;1004;1023;1049;1056;1011;1055;965;1100;1069;1057;1086;1040;1017;1125;1068;1067;1047;982
1030;1029;998;1007;1058;1077;1018;1070;977;1102;1076;1079;1095;1050;1018;1108;1052;1051;1013;961
1071;1061;1027;1009;1055;1099;1015;1073;994;1077;1015;1047;1082;1051;1062;1080;1026;1049;1033;995
1082;1075;1026;997;1055;1078;1020;1099;1003;1069;1021;1071;1059;1034;1013;1081;1006;1050;1011;1002
1079;1030;986;1005;1064;1072;1016;1088;990;1024;1022;1074;1071;1056;1025;1075;1011;1032;1013;1008
1054;1044;985;959;1025;1075;949;1057;936;998;1011;1006;1078;1045;1039;1038;1000;996;996;1006
1119;1082;1027;1002;1052;1101;1020;1066;1003;1010;1009;1039;1082;1052;1055;1044;1018;1016;998;1016
1112;1095;1046;1041;1080;1083;1038;1077;1007;1070;1050;1062;1097;1047;1058;1068;1039;1041;1046;1031
1080;1076;1036;1031;1066;1115;1028;1065;1006;1088;1074;1065;1117;1043;1059;1106;1043;1060;1027;1000
1078;1065;1024;1023;1081;1067;1023;1098;984;1065;1063;1062;1111;1026;1027;1133;1045;1042;1000;978
1097;1057;1017;1024;1087;1091;1046;1111;988;1061;1068;1066;1104;1059;1051;1084;1038;1038;1012;984
1061;1045;1001;996;1037;1043;997;1072;975;1083;1067;1036;1089;1055;1063;1102;1053;1051;1035;1004
1073;1046;900;1006;1046;1018;1009;1034;972;1064;1034;1035;1075;1035;1016;1071;1004;1042;1014;1018
1057;1014;786;929;1000;944;915;958;950;1036;955;905;961;924;946;1011;917;955;960;961
1073;1036;843;959;1017;1120;966;1068;975;1054;999;1003;1044;1015;1008;1061;986;1022;1007;1013
1074;1037;896;1001;1048;1272;1027;1092;998;1057;1024;1010;1123;1054;1090;1087;1027;1061;1020;1007
1099;1076;970;1046;1056;1318;1038;1091;1018;1081;1043;1039;1105;1072;1079;1073;1037;1069;1075;1046
1070;1047;960;1021;1056;1300;980;1070;978;1074;1042;1018;1086;1051;1060;1050;1016;1052;1058;1030
1045;1048;982;1005;1034;1234;987;1054;991;1086;1038;987;1085;1049;1077;1063;1008;1052;1039;1040
1083;1042;981;993;1023;1168;980;1019;997;1070;997;1015;1069;1066;1065;1017;1004;1036;1057;1045
1108;1087;1025;1020;1038;1184;1022;1072;1019;1101;1046;1031;1080;1094;1080;1062;1034;1086;1072;1060
1105;1105;1047;1027;1030;1145;1018;1077;1009;1088;1046;1002;1083;1059;1066;1042;1017;1078;1035;1046
1110;1108;1051;1049;1058;1130;1047;1081;1009;1044;1013;1027;1077;1039;1047;1073;1016;1069;1044;1057
1084;1064;1004;1014;1059;1108;1020;1095;1004;1072;1048;1043;1091;1070;1055;1084;1022;1066;1046;1058
1105;1064;1015;1003;1048;1099;1005;1090;1028;1089;1054;1026;1137;1073;1074;1101;1054;1065;1081;1090
1122;1078;1056;1064;1092;1137;1047;1098;1046;1096;1059;1042;1079;1061;1088;1084;1040;1083;1074;1076
1126;1088;1072;1068;1099;1136;1043;1129;1041;1092;1075;1078;1083;1078;1067;1077;1041;1090;1099;1112
1097;1073;1051;1043;1091;1130;1043;1078;1033;1105;1061;1065;1109;1089;1087;1106;1075;1096;1109;1110
1160;1118;1099;1068;1106;1089;1066;1115;1058;1146;1059;1075;1101;1070;1055;1098;1074;1120;1113;1134
1129;1091;1068;1049;1092;1094;1041;1098;1009;1118;1060;1082;1105;1100;1088;1084;1075;1100;1102;1109
1182;1125;1086;1061;1114;1082;1046;1108;1080;1149;1088;1090;1104;1096;1087;1114;1082;1132;1123;1110
1139;1126;1062;1044;1103;1097;1040;1092;1045;1153;1088;1057;1082;1041;1056;1134;1080;1118;1093;1130
1146;1081;1063;1062;1114;1119;1051;1106;1039;1134;1075;1063;1086;1076;1074;1117;1066;1112;1123;1129
1143;1109;1072;1073;1107;1091;1071;1112;1060;1144;1119;1088;1087;1061;1079;1103;1083;1150;1113;1122
1157;1097;1091;1088;1115;1098;1066;1088;1046;1131;1119;1068;1104;1079;1086;1112;1087;1146;1104;1101
1140;1116;1069;1068;1106;1095;1044;1099;1026;1118;1088;1104;1086;1079;1047;1116;1068;1128;1087;1084
1103;1069;1048;1023;1068;1093;1005;1071;995;1074;1054;1068;1073;1072;1059;1103;1053;1091;1066;1071
1108;1066;1046;1010;1066;1102;997;1089;1003;1114;1063;1068;1086;1069;1060;1086;1062;1085;1072;1065
1122;1076;1053;1015;1056;1051;1009;1056;990;1104;1054;1027;1078;1075;1071;1082;1059;1084;1079;1093
1173;1119;1084;1044;1074;1104;1051;1069;1063;1135;1070;1087;1085;1124;1084;1072;1060;1094;1106;1123
1159;1098;1069;1043;1063;1124;1014;1071;1070;1131;1075;1053;1097;1083;1086;1104;1058;1088;1094;1122
1170;1083;1027;1008;1058;1094;966;1045;1027;1069;1030;1031;1083;1039;1061;1087;1016;1051;1045;1147
1199;1085;1067;1030;1075;1087;1006;1112;1057;1096;1049;1082;1103;1096;1103;1075;1056;1102;1067;1186
1288;1149;1064;1060;1071;1109;1016;1061;1093;1146;1100;1040;1118;1109;1108;1118;1080;1103;1144;1281
1293;1144;1057;1050;1062;1108;1055;1076;1109;1103;1029;1014;1069;1044;1104;1099;1045;1089;1141;1285
1284;1140;1060;1022;1050;1100;1037;1095;1112;1113;1062;1066;1095;1100;1104;1114;1060;1091;1155;1275
1280;1171;1062;1033;1059;1112;996;1082;1112;1114;1052;1079;1090;1094;1099;1107;1065;1099;1159;1240
1220;1109;1010;1010;1048;1084;989;1039;1067;1119;1036;1016;1112;1091;1128;1086;1048;1084;1120;1181
1137;1089;973;1008;1038;999;997;1117;997;1077;1025;1009;1065;1064;1070;1087;1022;1060;1056;1084
1073;1037;942;977;1021;1031;990;1036;975;1043;997;1028;1060;1041;1071;1068;1000;1033;1040;1030
1037;1033;974;989;1036;1062;958;1070;959;1060;1050;1010;1081;1021;1027;1076;1027;1026;1001;987
1036;1010;972;982;1033;1051;989;1059;946;1067;1039;1049;1068;1060;1053;1047;1024;1048;1018;972
1016;990;970;985;1019;1045;968;1015;948;1031;985;1036;1044;1023;1027;1029;988;1012;982;967
1017;1008;985;999;1020;1019;958;963;932;1035;980;1016;1053;1008;1002;1072;981;1030;1004;977
1010;998;954;967;996;1044;976;1037;898;1001;950;952;1031;985;1010;1028;958;997;982;967
998;985;951;968;1009;1039;981;1053;900;1013;987;1009;1044;990;980;1032;975;986;963;952
1026;1008;965;971;999;1096;985;1062;906;1008;990;993;1067;1016;1034;1035;987;975;962;945
1051;1019;1018;1029;1065;1033;1051;1106;966;1105;1067;1054;1097;1062;1064;1099;1046;1048;1038;999
1029;1016;1014;1015;1037;1067;1007;1091;947;1082;1058;1088;1089;1061;1076;1100;1056;1061;1060;1021
1002;994;1009;1019;1068;885;998;1089;970;1101;1074;1066;1104;1070;1057;1113;1080;1092;1067;1022
1070;1055;1068;1049;1080;894;1038;1096;1003;1142;1092;1079;1109;1088;1057;1110;1099;1124;1098;1046
1102;1065;1065;1054;1088;937;1056;1115;1029;1114;1051;1070;1084;1107;1077;1070;1044;1101;1123;1086
1108;1057;1056;1025;1057;912;1022;1065;1037;1069;1044;1036;1081;1088;1087;1052;1035;1070;1060;1053
1138;1084;1080;1034;1062;994;1038;1098;1027;1068;1024;1019;1074;1064;1054;1103;1029;1075;1076;1094
1199;1147;1106;1023;1056;997;1024;1058;1079;1050;1007;1066;1092;1058;1099;1085;1010;1063;1115;1167
1231;1134;1084;1024;1061;988;1008;1076;1100;1088;1025;1064;1075;1061;1050;1093;1016;1063;1103;1179
1248;1136;1064;1026;1057;1054;1045;1051;1089;1107;1044;1032;1106;1087;1105;1096;1058;1086;1135;1246
1302;1183;1117;1042;1068;1113;1015;1083;1110;1115;1052;1090;1104;1111;1112;1111;1075;1106;1152;1274
1273;1137;1097;1043;1092;1112;1024;1095;1077;1182;1153;1129;1114;1155;1123;1200;1160;1190;1190;1268
1264;1139;1106;1057;1095;1109;1025;1098;1085;1153;1107;1095;1071;1111;1115;1147;1107;1147;1125;1218
1211;1113;1101;1051;1086;1095;1029;1063;1035;1128;1066;1042;1036;1070;1053;1069;1078;1090;1073;1116
1121;1030;1034;993;1032;1062;1015;1085;949;1090;1041;1040;1060;1062;1016;1047;1021;1047;1011;989
1063;1001;997;965;1011;1068;974;1029;933;1062;1030;977;1073;1040;1013;1076;1007;1030;970;973
1064;1019;1012;974;1026;1074;962;1021;917;1052;1024;997;1051;1022;991;1077;1024;1028;979;919
1041;992;994;991;1042;1052;966;1055;912;1068;1043;1015;1090;1033;1019;1073;1020;1040;991;925
1048;1024;1004;980;1020;1059;973;1024;932;1083;1068;1042;1070;1044;1011;1111;1050;1049;1017;946
1021;1008;994;984;1016;1012;957;1010;942;1058;1005;972;1010;965;973;1047;976;1004;965;917
1045;1026;1046;993;1035;1084;992;1041;969;1041;1001;1018;1053;1011;992;1045;985;1034;990;952
1054;1036;1050;1027;1054;1108;1021;1068;975;1053;1013;1016;1091;1064;1060;1066;1032;1045;997;967
1066;1045;1053;1014;1054;1117;991;1057;984;1066;1041;1031;1108;1046;1055;1109;1060;1055;1008;987
1056;1032;1058;1017;1071;1070;1000;1086;975;1081;1064;1050;1087;1068;1039;1101;1057;1085;1059;1042
1050;1047;1095;1017;1070;1149;1015;1114;985;1069;1039;1054;1074;1048;1049;1099;1017;1035;1015;988
1028;1035;1032;1015;1050;1097;1005;1080;963;1079;1049;989;1072;1048;1061;1086;1037;1071;1042;1026
1024;1022;1032;999;1037;1066;988;1062;963;1105;1046;1020;1082;1063;1054;1042;1045;1081;1048;1022
1068;1053;1027;1019;1067;1091;1011;1093;985;1109;1088;1055;1120;1087;1077;1111;1073;1107;1062;1021
1055;1051;1003;1010;1051;1046;978;1031;964;1087;1049;1033;1095;1055;1050;1116;1044;1080;1045;1036
1079;1055;990;997;1046;1059;1000;1053;976;1071;1046;1046;1106;1070;1026;1098;1034;1051;1020;1015
1055;1096;999;985;1026;1031;968;1070;1046;1060;1008;1042;1065;1055;1017;1080;1016;1059;1156;838
1065;1101;1012;1007;1053;1052;988;1083;1048;1062;1015;997;1075;1032;1059;1062;1006;1031;1018;1017
1141;1045;971;994;1027;1083;1000;1085;937;1015;983;995;1069;1045;1067;1039;976;1031;1002;1044
1114;1067;1012;998;1028;1078;1006;1031;1001;1088;1022;1000;1100;1091;1066;1047;1029;1080;1076;1075
1122;1076;1049;1042;1083;1104;1034;1129;1026;1068;1015;1067;1075;1090;1050;1031;1009;1048;1032;1025
1052;1047;1004;1022;1055;1064;999;1082;985;1068;1028;1023;1079;1056;1032;1072;1000;1053;1016;1031
1101;1080;1051;1039;1070;1075;1001;1075;1035;1113;1036;1040;1083;1062;1057;1079;1012;1090;1084;1072
1107;1074;1022;1014;1034;1078;1011;1080;1020;1105;1034;1013;1095;1086;1068;1100;1027;1081;1086;1069
1112;1066;1047;1013;1057;1040;1004;1063;1015;1094;1040;1013;1064;1056;992;1079;999;1051;1049;1039
1098;1062;1024;997;1040;1074;1025;1083;1003;1077;1058;1051;1099;1068;1052;1092;1048;1082;1090;1063
1010;959;909;907;995;889;895;941;933;1079;966;878;897;840;872;1010;888;940;938;962
1038;996;951;942;1024;1035;943;1034;946;1058;978;976;1009;973;1023;1029;958;1010;1037;1038
1100;1034;986;988;1032;1111;1024;1127;963;1038;1027;990;1125;1087;1107;1052;1030;1044;1066;1117
1162;1067;1009;1000;1020;1091;1020;1091;997;1076;1029;1000;1082;1083;1095;1030;1032;1077;1108;1175
1165;1066;1036;1012;1056;1101;1052;1108;1009;1050;1021;1037;1086;1090;1085;1037;1026;1053;1097;1136
1139;1043;1008;985;1044;1117;1001;1075;1010;1042;1007;970;1063;1048;1074;1047;1010;1028;1064;1139
1162;1096;1033;1000;1037;1386;1027;1048;1007;1086;1037;980;1080;1063;1051;1089;1030;1045;1065;1097
1200;1130;1064;1012;1027;1357;1034;1043;1051;1076;1001;1007;1065;1086;1076;1042;1017;1057;1055;1077
1169;1101;1040;986;1039;1303;1012;1039;990;1117;1067;1006;1084;1061;1040;1075;1052;1090;1052;1050
1146;1082;1041;996;1030;1232;990;1013;994;1112;1036;964;1024;1006;1010;1067;1026;1067;1039;1032
1164;1107;1070;1022;1057;1237;1028;1074;1019;1103;1045;1037;1064;1053;1024;1088;1034;1074;1048;1032
1154;1103;1059;1031;1069;1242;1027;1086;1003;1097;1051;1013;1090;1045;1071;1056;1029;1060;1043;1038
1155;1121;1066;1017;1055;1209;1040;1077;995;1141;1075;1016;1097;1059;1094;1110;1080;1097;1084;1086
1152;1096;1082;1050;1066;1134;1037;1079;1027;1132;1071;1014;1086;1066;1044;1057;1037;1100;1071;1049
1104;1081;1048;1015;1048;1174;970;1053;988;1081;1037;998;1088;1050;1054;1075;1020;1051;1023;1050
1090;1041;1018;1001;1015;1091;995;1001;963;1074;1025;934;1063;1018;1048;1044;994;1024;1014;1017
1108;1039;1018;982;982;1089;963;991;966;1077;997;931;1053;1046;1077;999;1003;1032;1047;1031
1087;1050;1001;966;1002;1058;976;1000;944;1096;1034;958;1065;1049;1083;1032;1015;1043;1018;1012
1087;1038;987;954;1007;1076;943;984;944;1058;979;949;1062;1023;1038;1059;989;1046;1034;1038
1091;1056;1016;986;1027;1078;983;1059;978;1104;1055;989;1081;1062;1055;1078;1023;1089;1067;1037
1075;1034;1019;978;1004;1049;960;1009;978;1118;1064;954;1091;1046;1093;1095;1058;1109;1096;1088
1099;1023;989;975;1025;1055;980;1032;965;1075;1039;1002;1097;1061;1066;1077;1026;1061;1036;1036
1093;1039;985;987;1030;1051;996;1053;979;1080;1041;1004;1106;1070;1084;1097;1038;1047;1048;1084
1112;1051;1007;985;1024;1088;972;1052;999;1075;1046;1051;1082;1077;1070;1091;1063;1080;1114;1150
1222;1118;1123;1057;1099;1148;1026;1098;1120;1146;1087;1104;1104;1101;1147;1126;1102;1135;1160;1271
1336;1178;1160;1070;1093;1137;1041;1083;1163;1132;1079;1103;1098;1112;1124;1099;1093;1145;1195;1311
1373;1211;1183;1092;1093;1130;1060;1118;1187;1192;1110;1095;1092;1121;1147;1089;1103;1157;1233;1376
1370;1209;1210;1098;1107;1141;1043;1116;1190;1214;1121;1071;1124;1118;1137;1147;1108;1147;1229;1353
1348;1211;1202;1086;1125;1134;1060;1060;1160;1214;1117;1105;1118;1126;1125;1164;1134;1151;1210;1302
1302;1201;1185;1085;1116;1093;1051;1125;1143;1207;1151;1114;1128;1108;1112;1152;1124;1140;1172;1248
1271;1146;1136;1068;1101;1069;1041;1119;1106;1149;1086;1086;1121;1099;1119;1128;1098;1118;1132;1238
1184;1110;1119;1056;1095;1063;1041;1102;1056;1096;1056;1059;1107;1069;1088;1079;1056;1082;1063;1070
1141;1068;1113;1046;1080;1025;1005;1082;1012;1089;1033;1073;1076;1077;1062;1096;1045;1081;1063;1050
1056;1034;1042;1005;1051;962;985;1078;946;1054;1032;1075;1097;1061;1022;1095;1056;1055;1031;1006
1038;1019;1037;1040;1099;983;979;1106;934;1074;1054;1066;1098;1059;1029;1108;1062;1070;1022;977
985;973;999;1010;1065;933;997;1071;898;1051;1032;1058;1072;1068;1004;1062;1039;1038;987;949
962;1005;1030;1025;1075;943;1003;1070;906;1069;1048;1026;1076;1038;1022;1096;1031;1049;984;927
989;1014;1064;1055;1078;1042;1029;1091;978;1094;1040;1047;1074;1028;1020;1096;1026;1033;1007;960
1037;1022;1039;1031;1070;1043;1002;1068;957;1062;1040;1034;1083;1038;1020;1114;1040;1053;1029;944
1023;1014;1022;1008;1068;1037;998;1089;950;1075;1092;1054;1116;1040;1039;1127;1060;1054;1007;945
1045;1028;1044;1026;1096;1082;1011;1079;953;1048;1054;1039;1102;1034;1044;1119;1049;1040;1026;966
1048;1048;1064;1045;1076;1128;1030;1087;968;1054;1057;1077;1103;1069;1038;1120;1042;1040;1014;961
1071;1066;1048;1028;1067;1065;1012;1068;972;1078;1053;1068;1093;1079;1054;1116;1077;1059;1074;999
1054;1030;1044;1029;1049;982;993;1064;981;1093;1050;1022;1100;1075;1092;1122;1076;1092;1065;1006
1067;1062;1040;1044;1094;1076;1009;1128;1014;1103;1084;1097;1106;1070;1045;1112;1063;1067;1056;1030
1105;1095;1075;1052;1079;1027;1006;1088;1011;1021;1007;1100;1073;1053;1031;1041;1012;1035;1017;1006
1138;1102;1080;1047;1070;1058;1042;1070;1049;1114;1057;1067;1079;1056;1076;1087;1047;1056;1082;1093
1174;1116;1086;1045;1073;1049;1022;1062;1042;1135;1114;1068;1105;1079;1069;1147;1087;1074;1077;1120
1184;1127;1130;1075;1100;1057;1052;1084;1063;1138;1096;1114;1092;1102;1085;1105;1093;1094;1085;1121
1153;1097;1091;1067;1087;1034;1040;1067;1030;1158;1120;1084;1078;1092;1080;1108;1079;1102;1077;1082
1151;1080;1074;1062;1092;1049;1045;1074;1017;1111;1072;1082;1065;1048;1073;1118;1074;1101;1092;1092
1131;1061;1059;1053;1069;1000;1047;1087;987;1109;1098;1082;1086;1070;1042;1110;1072;1093;1060;1062
1095;1029;1028;1019;1044;1028;996;1046;958;1080;1046;993;1039;1032;1054;1068;1037;1067;1045;1053
1077;1057;1000;1003;1017;1070;1029;1054;950;1112;1056;984;1092;1034;1037;1086;1023;1054;1050;1002
1077;1072;1021;1005;1013;1075;1010;1051;986;1106;1028;988;1049;1039;1040;1060;1030;1069;1038;1018
1063;1071;1028;1024;1060;1097;1005;1099;998;1111;1062;1031;1070;1057;1067;1090;1056;1096;1078;1027
1081;1083;1036;1032;1066;1132;1015;1090;991;1091;1026;1012;1076;1042;1058;1084;1023;1050;1030;1011
1122;1078;1055;1032;1059;1104;1030;1111;995;1054;982;1036;1059;1062;1034;1052;1015;1052;1025;1025
1078;1062;984;989;1013;1050;990;1045;941;1063;1005;987;1088;1041;1038;1056;1007;1027;998;997
1054;1034;968;985;1045;1061;991;1056;931;1012;986;1009;1078;1029;1007;1082;1004;1003;986;1002
1096;1047;995;1022;1051;1062;1016;1077;975;1078;1043;1020;1103;1045;1042;1108;1036;1045;1047;1037
1133;1083;985;988;1039;1064;998;1087;997;1088;1077;1033;1110;1063;1074;1113;1042;1063;1044;1043
1137;1085;988;1029;1042;1098;1024;1097;1022;1088;1062;1011;1095;1061;1096;1092;1051;1078;1082;1080
1154;1071;973;1011;1065;1081;980;1062;1003;1090;1065;1034;1076;1080;1096;1106;1053;1087;1093;1123
1192;1125;1023;1042;1097;1140;1023;1100;1044;1109;1069;1080;1087;1093;1074;1123;1075;1127;1124;1148
1111;1076;980;1014;1045;1115;958;1076;992;1125;1076;1069;1119;1081;1070;1127;1066;1117;1082;1095
1136;1086;1004;1022;1050;1127;1047;1069;994;1096;1037;1031;1056;1056;1040;1070;1035;1096;1038;1068
1145;1080;1013;1024;1063;1107;998;1059;998;1117;1035;1052;1068;1059;1052;1056;1036;1069;1040;1067
1109;1073;1022;1028;1075;1092;992;1078;1030;1120;1048;1036;1075;1048;1046;1082;1041;1058;1045;1045
1087;1044;997;1008;1052;1085;1001;1071;941;1093;1053;1004;1064;1022;994;1103;1017;1031;1001;987
1054;1011;949;980;1021;1065;967;1048;910;1077;1042;1019;1079;1035;996;1062;1015;1027;996;941
1052;1061;985;999;1042;1083;1009;1099;963;1096;1068;1026;1062;1036;1024;1077;1009;1038;1027;952
1028;1043;967;982;1033;1089;969;1053;963;1078;1040;992;1070;1048;1041;1078;1019;1034;1031;964
1069;1023;963;967;1044;1061;966;1042;923;1028;1014;1026;1069;1028;1010;1080;1017;1024;994;972
1047;1020;957;967;1034;1062;948;1047;933;1029;1020;1027;1081;1065;1021;1083;1015;1034;1001;977
1050;1007;957;967;1019;1060;979;1060;947;1021;1004;979;1053;1016;1041;1059;992;1027;966;965
1032;981;960;985;1027;1035;980;1062;936;1053;1027;1012;1066;1041;1033;1061;1023;1052;1025;979
1007;1021;990;977;1035;1080;952;1051;967;1058;1018;1032;1069;1047;1069;1073;1016;1061;1022;1000
1073;1035;1012;1024;1055;1082;1018;1116;974;1093;1064;1016;1093;1044;1078;1081;1045;1086;1037;1036
1073;1025;1034;1028;1056;1078;993;1083;954;1127;1076;985;1039;1044;1055;1087;1037;1091;1061;1072
1107;1088;1054;1031;1065;1101;1033;1082;999;1119;1071;1035;1066;1063;1072;1041;1035;1056;1080;1090
1191;1114;1062;1055;1099;1087;1019;1098;1024;1114;1092;1050;1095;1066;1086;1110;1062;1093;1089;1173
1326;1186;1114;1048;1074;1162;1037;1071;1109;1131;1070;1067;1108;1107;1099;1112;1074;1097;1175;1309
1318;1165;1092;1055;1077;1146;1034;1076;1118;1101;1016;1002;1103;1086;1110;1068;1019;1053;1116;1277
1245;1115;1072;1020;1060;1105;1004;1087;1065;1095;1055;1000;1088;1088;1110;1092;1047;1061;1093;1211
1185;1082;1053;1000;1019;1097;979;1035;1027;1088;1028;1017;1057;1068;1085;1066;1027;1051;1070;1146
1088;1034;1002;981;1031;1136;962;1094;981;1024;1005;1022;1070;1014;1032;1069;979;1015;978;995
1071;1002;988;982;1038;1238;1016;1089;933;1016;1015;1044;1041;1037;1006;1045;995;1008;973;995
1012;1007;989;976;1008;1288;974;1053;903;1020;991;1007;1033;1017;1020;1007;978;1004;955;933
1024;1024;1026;1006;1034;1266;983;1058;915;1068;1044;1015;1064;1024;1020;1097;1014;1046;982;977
1037;1056;1082;1040;1078;1248;1015;1059;986;1134;1070;1056;1093;1042;1051;1133;1072;1081;1070;993
1055;1046;1081;1064;1092;1168;1047;1090;1005;1152;1114;1092;1088;1041;1031;1137;1065;1089;1046;979
1057;1050;1078;1051;1078;1174;1001;1052;1007;1123;1070;1056;1090;1051;1060;1103;1068;1081;1061;993
1055;1049;1066;1050;1093;1154;1005;1095;978;1120;1046;1031;1081;1033;1051;1099;1050;1053;1022;962
1047;1072;1056;1018;1048;1146;976;1072;968;1080;1034;1065;1100;1038;1043;1109;1040;1040;1040;951
1056;1005;1008;1001;1036;1109;964;1052;970;1105;1055;1006;1108;1073;1059;1077;1055;1079;1054;1004
1064;1031;1045;1023;1046;1084;1012;1058;999;1077;1022;1017;1089;1054;1043;1052;1020;1050;1037;985
1067;1043;1014;1001;1031;1079;985;1050;1004;1085;1013;1012;1092;1075;1066;1029;1018;1054;1053;1036
1079;1072;1058;1038;1064;1098;1003;1058;1021;1056;1012;1000;1067;1034;1067;1034;1019;1049;1037;1041
1097;1083;1060;1052;1084;1089;1022;1075;1041;1119;1074;1025;1089;1068;1066;1110;1055;1091;1095;1062
1092;1061;1045;1052;1081;1064;1008;1105;1036;1099;1063;1088;1110;1084;1104;1089;1060;1068;1055;1041
1097;1057;1034;1010;1055;1037;999;1047;1011;1100;1045;1048;1075;1065;1078;1074;1049;1065;1076;1051
1103;1059;1040;1016;1044;1071;1002;1051;998;1070;1005;1010;1071;1041;1054;1063;1029;1033;1041;1046
1098;1065;1024;1012;1041;1071;1001;1070;989;1095;1058;1051;1066;1059;1042;1083;1045;1052;1048;1049
1079;1026;982;968;1001;966;937;1010;984;1076;1011;949;950;923;925;1045;945;983;922;986
1132;1101;1053;1039;1059;1086;1053;1087;1034;1084;1033;1053;1095;1072;1086;1081;1035;1072;1061;1096
1080;1020;968;958;1010;856;909;1004;974;1087;1013;976;990;972;984;1047;965;1009;1003;1066
1128;1100;1043;1036;1076;888;1024;1104;1016;1082;1043;1042;1073;1084;1058;1068;1041;1068;1063;1076
1116;1115;1045;1040;1065;919;1014;1084;1014;1067;1050;1042;1099;1077;1082;1094;1066;1066;1055;1066
1108;1077;1030;1034;1082;952;1044;1090;992;1101;1067;1041;1099;1066;1052;1126;1074;1060;1059;1046
1127;1082;1014;1031;1093;949;1028;1102;1011;1100;1065;1080;1093;1076;1065;1088;1085;1070;1074;1073
1143;1113;1021;1047;1093;953;1031;1106;1041;1120;1084;1088;1100;1079;1081;1102;1081;1074;1093;1092
1163;1131;1056;1059;1078;1018;1027;1091;1044;1105;1059;1079;1104;1093;1075;1143;1098;1113;1112;1138
1204;1157;1072;1069;1104;1024;1054;1106;1061;1136;1111;1125;1110;1099;1089;1150;1105;1124;1140;1173
1270;1194;1088;1057;1092;1092;1065;1122;1089;1166;1131;1121;1130;1110;1117;1186;1134;1151;1183;1284
1267;1143;1032;1029;1081;1051;1000;1082;1079;1167;1138;1040;1165;1124;1149;1164;1120;1148;1156;1291
1377;1234;1150;1117;1117;1143;1111;1142;1179;1142;1087;1087;1091;1108;1129;1097;1062;1119;1158;1296
1328;1190;1091;1082;1093;1101;1087;1065;1132;1127;1056;1083;1072;1114;1119;1090;1058;1107;1167;1303
1258;1153;1095;1075;1115;1119;1040;1108;1073;1143;1110;1089;1106;1090;1112;1148;1080;1123;1102;1207
1231;1149;1115;1104;1126;1097;1068;1114;1072;1135;1107;1120;1082;1124;1109;1082;1057;1114;1095;1139
1054;1036;1056;1041;1064;1043;1004;1031;970;1055;1022;1076;1049;1042;1027;1054;1013;1043;991;963
1008;996;1007;1010;1040;995;992;1038;923;1043;1014;1030;1074;1020;1017;1071;1016;1040;997;960
988;1015;997;978;1020;1048;969;1036;919;1022;985;1015;1023;1016;991;1025;987;997;998;927
993;982;993;968;998;1067;976;1045;935;1047;992;961;1052;1016;1016;1034;999;1004;985;920
975;997;1014;1015;1029;1061;1003;1057;951;1075;1040;1010;1088;1038;1044;1081;1009;1065;1012;956
991;999;999;1011;1046;1003;1020;1043;926;1049;1009;1016;1065;1030;1024;1090;1015;1028;995;961
992;991;983;988;1021;1006;970;1025;914;1034;992;982;1044;1022;1031;1012;967;1002;962;933
1001;991;979;977;1000;1006;974;1034;892;1042;982;962;1037;1010;1022;1026;963;995;998;976
1023;1018;992;992;1009;1043;1012;1019;929;1044;1003;995;1056;1033;1046;1033;978;1012;1000;974
1059;1042;1026;1029;1046;1070;986;1053;980;1061;1033;1044;1062;1056;1048;1077;1008;1048;1043;1042
1063;1050;1016;1010;1038;1075;1003;1050;996;1079;1035;1020;1090;1047;1091;1088;1025;1047;1031;1049
1105;1063;1007;997;1019;1053;995;1058;999;1089;1037;1011;1089;1064;1096;1081;1045;1074;1071;1104
1156;1111;1047;1020;1066;1096;1009;1081;1043;1111;1057;1072;1095;1076;1095;1097;1074;1105;1122;1177
1305;1230;1133;1075;1102;1174;1071;1097;1140;1172;1084;1084;1120;1116;1170;1134;1092;1137;1172;1294
1359;1222;1114;1077;1106;1131;1074;1123;1164;1160;1084;1116;1113;1146;1131;1105;1075;1140;1191;1338
1375;1222;1147;1080;1077;1177;1083;1107;1170;1182;1102;1076;1109;1175;1174;1111;1103;1163;1212;1335
1359;1201;1102;1063;1071;1154;1069;1085;1158;1137;1090;1058;1088;1135;1130;1132;1083;1109;1160;1311
1300;1162;1080;1052;1071;1131;1054;1084;1098;1133;1057;1055;1081;1103;1101;1117;1079;1113;1146;1256
1324;1186;1097;1063;1074;1146;1068;1081;1084;1132;1055;1043;1065;1080;1107;1076;1052;1092;1099;1205
1234;1116;1036;1003;1025;1083;984;1012;1022;1094;1012;984;1064;1052;1105;1058;1018;1062;1082;1177
1175;1063;1019;1028;1049;1108;1036;1094;978;1106;1056;1012;1089;1047;1087;1082;1048;1056;1036;1089
1132;1073;1033;1028;1055;1110;1011;1112;975;1080;1021;1059;1038;1033;1044;1056;1019;1045;1042;1064
1053;1020;973;986;1033;1091;965;1067;910;1065;1037;1017;1039;1045;1044;1071;1016;1029;997;982
1025;998;972;1010;1037;1060;989;1055;896;1049;1016;992;1036;1047;1004;1046;1010;1011;978;952
984;980;932;966;1013;1043;969;1020;851;1023;991;991;1039;1020;977;1011;982;997;944;865
974;1006;954;979;1031;1050;998;1075;909;1047;1003;1020;1057;1038;997;1019;981;1009;980;879
977;1028;986;993;1047;1077;1021;1084;946;1064;1005;1000;1051;1037;1002;1043;973;1013;981;896
964;976;954;974;1006;1036;975;1034;892;1046;1006;995;1046;1028;989;1059;995;1021;1002;916
979;1010;976;998;1031;1056;996;1079;918;1069;1031;1006;1068;1036;1006;1059;1003;1027;985;907
968;1003;958;975;991;1024;959;1034;926;1032;971;977;1065;1027;1023;1037;986;1011;985;919
958;1006;979;961;996;1030;972;1031;927;1063;998;1008;1069;1037;1021;1051;998;1021;998;930
1021;1048;1001;1008;1021;1092;1016;1049;949;1066;1000;1033;1056;1032;992;1040;1002;1027;1002;958
1037;1040;1010;1025;1041;1114;1048;1095;974;1087;1030;1018;1087;1036;1039;1081;1024;1041;1010;953
1016;1005;975;1000;1041;1075;1005;1050;945;1044;1013;1018;1059;1034;1006;1052;1011;1016;989;918
1032;993;967;981;1017;1067;996;1001;920;1052;1022;1012;1049;1026;996;1041;1004;1017;958;903
999;1022;990;998;1045;1103;983;1035;942;1030;1032;1028;1069;1014;1015;1090;1007;1021;944;895
1006;996;965;995;1047;1055;962;1002;931;1012;1025;1012;1086;1013;995;1083;1009;1012;967;922
1053;1041;996;1002;1054;1079;987;1032;948;1033;1039;1049;1098;1049;1033;1068;1032;1025;976;941
1031;1034;988;1012;1066;1052;989;1038;958;1080;1073;1049;1083;1042;1042;1071;1043;1058;1025;952
1046;1040;980;1000;1043;1014;954;978;942;1052;1024;1016;1054;1010;1007;1084;1012;1025;999;932
1062;1047;1005;1009;1051;1021;980;1035;948;1072;1048;1065;1079;1060;1040;1104;1031;1059;1029;969
1073;1049;1010;1027;1058;1067;1004;1060;980;1076;1043;1039;1111;1075;1104;1083;1053;1071;1067;1014
1104;1040;1006;993;1036;1077;981;1020;986;1074;1042;1009;1105;1067;1087;1071;1034;1069;1054;1042
1140;1077;1029;1021;1060;1097;1008;1066;1029;1101;1050;1028;1070;1055;1081;1069;1040;1081;1064;1093
1116;1070;1037;1013;1049;1116;978;1032;1016;1092;1046;1025;1045;1058;1103;1046;1035;1066;1087;1104
1108;1082;1021;990;1027;1113;969;1040;1030;1094;1040;1025;1061;1048;1086;1065;1033;1075;1072;1063
1135;1106;1073;1021;1057;1081;1007;1049;1038;1119;1059;1078;1054;1082;1077;1055;1060;1103;1087;1090
1122;1059;1014;994;1027;1080;989;1024;1007;1105;1067;1029;1086;1078;1077;1055;1044;1092;1064;1077
1109;1058;1025;1009;1049;1079;1006;1062;1006;1102;1074;1039;1075;1064;1034;1107;1055;1085;1055;1108
1125;1092;1035;1045;1084;1073;1028;1087;1010;1132;1097;1065;1078;1086;1082;1090;1061;1081;1062;1061
1186;1110;1053;1012;1059;1103;1031;1063;1017;1121;1099;1059;1070;1074;1061;1109;1059;1089;1072;1138
1214;1133;1042;1027;1063;1118;1027;1070;1063;1127;1082;1047;1078;1085;1102;1099;1060;1096;1109;1173
1280;1182;1124;1114;1145;1182;1085;1116;1108;1186;1149;1079;1124;1102;1150;1145;1109;1119;1167;1250
1321;1201;1127;1079;1101;1179;1061;1076;1103;1152;1112;1098;1104;1118;1126;1144;1095;1120;1195;1294
1320;1215;1148;1086;1144;1195;1063;1149;1153;1167;1108;1156;1120;1135;1147;1147;1108;1155;1180;1299
1322;1211;1147;1097;1136;1183;1093;1146;1142;1185;1117;1120;1127;1127;1128;1139;1130;1176;1206;1307
1281;1188;1131;1070;1086;1143;1047;1070;1136;1189;1087;1056;1086;1139;1133;1110;1112;1169;1189;1257
1224;1140;1122;1076;1094;1146;1021;1065;1116;1139;1062;1044;1111;1111;1116;1118;1087;1123;1123;1186
1125;1061;1043;1026;1042;1072;1013;1066;1014;1104;1046;1000;1089;1086;1074;1115;1043;1092;1090;1104
1013;1007;987;1006;1068;1026;971;1075;971;1059;1006;1043;1065;1019;1049;1094;1020;1071;1058;1006
1031;1022;1004;1019;1088;1034;991;1075;968;1046;1015;1044;1048;1011;1015;1063;990;1025;1002;960
1050;1037;984;1005;1061;1057;1009;1050;942;1023;996;1021;1076;1032;1060;1077;1020;1018;980;1012
1051;1031;990;989;1033;1017;966;1046;951;1071;1041;1045;1074;1042;1037;1106;1049;1058;1012;1026
1064;1036;1018;1039;1083;1064;1014;1099;977;1078;1042;1108;1089;1072;1041;1097;1046;1060;1046;1010
1025;1011;982;1035;1076;1041;989;1065;950;1031;1003;1042;1077;1032;1037;1067;1005;1017;1000;972
1033;1012;975;991;1036;1050;994;1057;935;1038;998;1026;1084;1035;1015;1064;1012;1025;1030;972
995;1000;954;1010;1051;1066;974;1091;930;1048;1025;1043;1101;1028;1044;1081;1017;1029;1036;947
1029;1005;978;1010;1064;1051;955;1102;967;1004;1005;1038;1067;1020;1011;1071;982;992;984;1002
1014;1001;958;1004;1045;1032;959;1022;953;1052;1013;1023;1067;1053;1034;1071;997;1049;998;1018
1031;1027;965;1021;1053;1040;990;1050;970;1049;1014;1075;1075;1061;1053;1034;1011;1044;1024;989
1075;1051;1018;1044;1093;1073;1004;1050;1000;1105;1090;1092;1091;1072;1070;1096;1050;1081;1079;1037
1069;1041;1003;1013;1083;985;949;979;955;1059;998;1010;1006;950;965;1056;990;1011;1004;961
1038;1022;978;998;1070;1016;974;1064;950;1061;1042;1073;1052;1036;1009;1099;1018;1039;1055;987
1064;1042;1005;1021;1072;1064;982;1069;979;1090;1065;1056;1117;1074;1083;1101;1056;1067;1068;1017
1065;1027;977;1021;1071;1059;999;1094;956;1069;1042;1049;1107;1063;1082;1095;1036;1051;1035;1011
1083;1043;977;998;1046;1058;979;1049;960;1042;1007;1019;1084;1046;1065;1055;1014;1001;988;1024
1091;1040;960;999;1032;1052;956;1032;952;1049;1016;1015;1078;1037;1065;1049;993;990;1027;1026
1089;1072;971;1019;1052;1092;984;1068;988;1072;1028;1036;1084;1059;1065;1082;1020;1046;1029;1049
1132;1082;1026;1041;1073;1087;1038;1092;1001;1077;1042;1082;1080;1070;1062;1044;1030;1043;1046;1070
1175;1116;1034;1065;1092;1115;1050;1096;1050;1120;1054;1094;1089;1101;1094;1084;1032;1072;1042;1074
1154;1087;1021;1044;1069;1097;1039;1073;1007;1100;1068;1050;1093;1053;1054;1115;1051;1088;1050;1079
1141;1099;1019;1045;1085;1142;1061;1101;1024;1108;1062;1087;1094;1060;1064;1076;1033;1074;1012;1040
1144;1096;1034;1055;1106;1115;1049;1107;1009;1061;1000;1052;1063;1035;1040;1068;1001;1026;1016;1031
1137;1088;1021;1042;1080;1122;1077;1125;1021;1095;1028;1042;1107;1052;1062;1061;1013;1043;1028;1065
1146;1070;998;1036;1063;1115;1014;1090;1029;1093;1039;1047;1100;1063;1076;1076;1032;1089;1054;1084
1142;1089;1015;1021;1055;1144;1007;1086;1018;1099;1031;1044;1085;1053;1071;1060;1023;1079;1088;1114
1128;1073;997;1036;1055;1141;999;1108;1035;1089;1038;1044;1086;1049;1080;1079;1030;1067;1086;1094
1170;1099;1000;1029;1053;1092;993;1049;1034;1094;1024;1032;1067;1064;1058;1062;1033;1068;1076;1096
1151;1082;1029;1033;1061;1082;1040;1071;992;1093;1028;1042;1041;1050;1047;1052;1003;1057;1038;1059
1125;1074;1010;1034;1066;1094;1019;1106;1001;1095;1040;1034;1075;1034;1046;1101;1009;1067;1033;1067
1126;1081;1020;1039;1069;1098;1031;1091;992;1113;1041;1030;1092;1082;1053;1103;1044;1077;1062;1076
1125;1076;1025;1024;1060;1096;1027;1076;1015;1155;1077;1055;1092;1105;1080;1099;1052;1088;1054;1058
1149;1080;1050;1040;1066;1102;1035;1096;1011;1126;1039;1054;1071;1077;1077;1100;1043;1091;1065;1089
1126;1077;1025;1035;1047;1112;1042;1030;1014;1103;1039;987;1080;1049;1076;1047;1029;1083;1067;1044
1126;1080;1024;1006;1028;1091;1019;1048;994;1085;1014;1002;1069;1061;1022;1063;1025;1071;1055;1045
1102;1076;1051;1023;1073;1130;1034;1096;1036;1102;1046;1076;1082;1092;1077;1076;1046;1098;1092;1074
1138;1086;1063;1059;1087;1112;1047;1081;1019;1110;1048;1035;1083;1053;1065;1091;1037;1080;1047;1045
1116;1056;1033;1022;1072;1096;1018;1040;1012;1072;1035;1059;1075;1085;1070;1075;1037;1070;1061;1087
1104;1062;1017;1021;1078;1127;1032;1076;1015;1078;1049;1085;1104;1065;1090;1109;1048;1078;1053;1069
1100;1057;989;991;1063;1074;997;1059;987;1055;1021;1016;1059;1045;1039;1077;1010;1057;1036;1037
1122;1090;1054;1022;1061;1109;1026;1066;1003;1068;1009;1019;1080;1054;1035;1077;1005;1032;1033;1072
1116;1060;1010;980;1034;1094;1000;1025;992;1082;1033;1025;1081;1067;1082;1070;1020;1054;1044;1049
1131;1089;1062;1025;1074;1125;1043;1093;1033;1114;1048;1069;1092;1073;1075;1093;1057;1068;1090;1092
1162;1132;1055;1041;1078;1101;1035;1083;1038;1107;1058;1041;1075;1059;1055;1074;1033;1049;1066;1100
1205;1120;1074;1027;1092;1086;1039;1100;1045;1091;1053;1087;1091;1077;1077;1081;1038;1095;1107;1172
1225;1123;1082;1042;1087;1112;1054;1105;1071;1143;1089;1024;1094;1096;1141;1093;1067;1106;1133;1210
1274;1170;1118;1059;1094;1152;1057;1128;1128;1130;1047;1056;1084;1080;1104;1100;1062;1098;1140;1254
1278;1170;1098;1043;1080;1157;1019;1072;1121;1134;1077;1061;1100;1118;1138;1119;1085;1106;1169;1296
1282;1152;1083;1051;1098;1158;1033;1104;1109;1112;1072;1079;1112;1071;1113;1116;1059;1097;1121;1246
1240;1141;1047;1029;1083;1138;1017;1061;1060;1090;1067;1039;1105;1066;1057;1101;1052;1071;1091;1203
1281;1135;1058;1038;1067;1130;1007;1075;1050;1078;1033;1039;1089;1087;1068;1067;1047;1071;1092;1178
1191;1095;1001;996;1032;1112;1008;1011;1008;1074;1036;1039;1101;1062;1090;1067;1034;1050;1070;1115
1215;1118;1051;1029;1053;1130;1029;1043;1022;1063;1023;1031;1082;1045;1042;1064;1013;1054;1059;1115
1187;1094;1048;1016;1050;1123;1004;1049;1001;1069;1054;1041;1132;1045;1037;1075;1035;1050;1032;1074
1139;1072;1014;1012;1046;1118;1017;1041;977;1045;1017;977;1103;1011;1037;1054;1014;1042;1047;1071
1084;1022;1005;1004;1031;1085;983;1047;949;1056;1040;1020;1098;1020;1016;1075;1031;1035;986;1003
1068;1025;1018;1005;1052;1084;997;1070;951;1070;1048;1096;1107;1037;1012;1085;1048;1056;1041;1011
1010;964;980;978;1035;1068;966;1054;886;1014;1044;1036;1116;1058;1001;1087;1017;1021;984;956
991;985;962;998;1063;1067;969;1078;904;1044;1059;1077;1124;1041;1010;1099;1029;1039;992;963
1026;993;989;1018;1069;1046;996;1079;903;1059;1073;1096;1123;1065;1012;1102;1061;1068;1018;978
1042;1042;1022;1049;1082;1042;1011;1057;958;1083;1055;1082;1110;1075;1037;1052;1038;1082;1056;988
1043;1072;1046;1074;1096;1075;1038;1082;993;1122;1081;1060;1113;1048;1031;1106;1074;1106;1075;1015
1052;1071;1081;1077;1101;1078;1052;1062;994;1168;1091;1043;1111;1066;1038;1116;1087;1138;1100;1028
1049;1078;1094;1086;1128;1079;1048;1115;1036;1166;1105;1107;1111;1042;1021;1129;1077;1112;1057;972
1037;1067;1092;1066;1113;1061;1012;1067;1007;1127;1077;1092;1131;1047;1053;1127;1081;1112;1075;975
1028;1011;1016;1000;1049;1037;992;1035;967;1069;1043;1027;1080;1028;1056;1054;1033;1063;1003;955
1037;1050;1015;1008;1049;1043;967;1058;931;1063;1040;1055;1080;1027;1003;1078;1026;1063;1019;958
999;1002;976;1007;1059;1080;948;1081;929;1056;1032;1045;1118;1046;1034;1067;1027;1035;1019;948
991;1014;986;1008;1040;1061;1002;1036;914;1076;1042;995;1120;1049;1018;1080;1021;1047;1003;944
1100;1073;1048;1031;1069;1096;1022;1059;993;1061;998;1033;1043;1048;1031;1023;1015;1052;1021;990
1105;1104;1056;1031;1084;1170;1016;1083;1045;1054;996;1054;1067;1042;1069;1034;1007;1048;1030;973
1097;1076;1034;1031;1069;1106;974;1017;1009;1081;1024;1003;1083;1044;1063;1095;1033;1083;1061;1040
1098;1064;1011;1003;1037;1066;997;1020;1003;1082;1024;1030;1082;1052;1075;1052;1034;1063;1032;1015
1124;1081;1032;1031;1095;1072;1009;1048;1027;1126;1077;1059;1107;1085;1053;1115;1054;1101;1063;1017
1122;1091;1036;1038;1090;1072;1030;1067;1033;1103;1038;1042;1098;1062;1046;1118;1045;1091;1064;1060
1107;1107;1043;1040;1087;1048;1018;1070;1021;1104;1074;1059;1099;1083;1049;1106;1043;1082;1051;1051
1181;1123;1027;1021;1081;1074;994;1089;1024;1110;1062;1069;1102;1073;1060;1114;1058;1100;1119;1106
1191;1106;1019;1019;1067;1095;1016;1108;1059;1105;1033;1029;1092;1063;1089;1074;1033;1064;1075;1128
1248;1149;1071;1066;1099;1100;1013;1128;1086;1126;1075;1061;1091;1080;1117;1100;1050;1100;1137;1198
1214;1143;1080;1047;1087;1107;1010;1090;1102;1092;1029;1074;1109;1094;1127;1091;1046;1085;1115;1211
1214;1154;1080;1060;1094;1137;1005;1114;1115;1140;1073;1067;1113;1073;1119;1121;1083;1141;1138;1221
1235;1130;1082;1049;1080;1101;1016;1055;1107;1141;1063;1076;1109;1115;1109;1090;1081;1127;1138;1188
1099;1034;974;985;1029;1072;978;1067;955;1058;1053;1030;1092;1073;1061;1073;1038;1053;1040;1052
1050;1035;992;996;1050;1161;1017;1076;956;1075;1050;1042;1106;1062;1051;1086;1037;1058;1018;988
1018;1033;1002;1001;1036;1286;979;1050;949;1083;1028;977;1054;1021;1027;1075;1030;1059;1041;1037
1034;1027;995;1001;1056;1263;982;1083;971;1084;1060;1034;1070;1035;1037;1071;1052;1086;1054;1029
1034;1015;993;988;1042;1259;986;1052;947;1070;1044;977;1099;1049;1049;1071;1045;1087;1033;1000
1041;1041;1020;1030;1046;1229;1011;1081;998;1114;1068;1046;1130;1076;1088;1127;1065;1107;1092;1036
1052;1043;1019;1017;1051;1215;1011;1119;983;1078;1044;1073;1082;1024;1052;1092;1025;1058;1060;1023
1068;1049;1023;1020;1048;1194;966;1060;994;1067;1006;1039;1063;1057;1058;1043;992;1059;1041;1019
1038;1040;1014;1005;1057;1186;1005;1104;988;1041;1036;1043;1090;1048;1056;1085;1006;1042;989;1005
1055;1057;1020;1024;1075;1141;983;1088;972;1079;1038;1030;1098;1086;1047;1073;1040;1073;1048;1020
1076;1057;1049;1058;1092;1118;1054;1102;984;1101;1089;1087;1095;1073;1061;1084;1059;1064;1038;1015
1066;1052;1032;1048;1095;1077;1025;1110;986;1088;1077;1063;1062;1059;1034;1086;1023;1046;1030;1016
1091;1076;1041;1036;1077;1074;1015;1119;1021;1123;1057;1068;1074;1081;1064;1113;1050;1086;1069;1051
1119;1086;1030;1018;1081;1040;982;1026;1043;1114;1040;1028;1034;1031;1015;1079;1009;1045;1026;1018
1115;1073;1024;1023;1063;1081;1007;1044;1042;1130;1037;1006;1070;1069;1090;1084;1025;1098;1091;1081
1167;1107;1062;1039;1087;1141;1055;1117;1038;1114;1049;1077;1090;1081;1067;1099;1028;1084;1084;1105
1192;1117;1035;1019;1042;1031;1010;1122;1046;1106;1053;1069;1103;1099;1112;1109;1037;1086;1111;1132
1219;1118;1062;1039;1071;898;1011;1078;1068;1109;1057;1081;1089;1092;1105;1088;1051;1081;1118;1160
1251;1121;1082;1052;1086;889;1040;1100;1073;1084;1043;1055;1079;1076;1096;1089;1066;1087;1125;1202
1278;1139;1057;1017;1051;950;1020;1098;1066;1124;1054;1041;1071;1102;1099;1059;1052;1069;1119;1246
1269;1143;1057;1003;1056;980;1018;1050;1094;1083;1027;1024;1070;1059;1104;1092;1027;1055;1109;1247
1266;1127;1049;1008;1040;1024;1002;1063;1095;1108;1051;1005;1076;1072;1091;1085;1050;1082;1125;1220
1258;1103;1032;1010;1031;1004;996;1032;1059;1075;1025;995;1057;1066;1102;1034;1021;1051;1077;1151
1199;1084;1016;1006;1039;990;991;1073;1011;1047;1014;981;1044;1043;1037;1068;1010;1045;1043;1089
1148;1062;996;989;1030;987;996;1054;971;1049;1021;1000;1063;1038;1023;1046;994;1004;984;1014
1091;1052;1018;988;1038;1010;982;1066;968;1075;1039;1038;1068;1055;1004;1083;1029;1060;994;993
1058;1029;1033;995;1041;1018;988;1012;951;1090;1053;1040;1073;1055;1043;1092;1049;1094;1053;999
1049;1022;1022;995;1044;1014;1013;1043;953;1109;1072;1002;1078;1043;1063;1073;1037;1058;1006;974
1027;1033;1042;1042;1070;1030;1023;1080;1010;1079;1030;1033;1068;1046;1032;1058;1029;1034;1026;969
1016;1037;1027;1008;1044;1078;1005;1082;972;1106;1065;1018;1093;1059;1070;1091;1036;1066;1028;993
1000;1008;985;1007;1046;1027;977;1070;936;1064;1066;1023;1087;1046;1046;1103;1051;1063;1045;1000
1042;1004;991;987;1036;1022;981;1034;944;1063;1026;1035;1074;1051;1044;1054;1012;1032;1008;981
1068;1044;991;1009;1057;1057;989;1085;947;1056;1037;1058;1074;1063;1069;1062;1021;1013;1013;999
1075;1058;996;983;1022;1066;1007;1038;934;1057;1027;993;1070;1033;1028;1053;996;1021;989;994
1067;1027;974;976;1020;1028;977;1034;918;1040;971;957;991;965;973;1047;959;986;964;987
1062;1036;1009;989;1029;1044;985;1062;943;1057;1016;986;1042;1021;1028;1068;991;1030;1013;1025
1057;1048;1015;1010;1037;1073;982;1075;951;1077;1017;994;1110;1045;1075;1061;1025;1028;1009;1029
1057;1089;1034;1003;1043;1057;1011;1052;965;1097;1038;1001;1097;1059;1054;1099;1040;1061;1030;1016
1069;1075;1063;1016;1039;1092;975;1066;965;1107;1032;1012;1066;1043;1047;1079;1017;1057;1054;1042
1072;1071;1035;1013;1054;1113;987;1077;972;1102;1041;1024;1086;1060;1073;1067;1016;1055;1048;1024
1091;1073;1043;1021;1047;1093;993;1054;982;1096;1013;1001;1055;1049;1041;1030;999;1039;1028;1022
1086;1050;1012;989;1008;1051;982;1025;974;1039;963;991;1044;1064;1059;990;983;1016;1015;1012
1093;1055;1035;1018;1047;1092;1000;1060;1005;1092;1036;1008;1071;1084;1118;1045;1043;1078;1046;1049
1103;1046;1032;1001;1023;1088;997;1036;1014;1092;1031;994;1047;1055;1077;1077;1026;1066;1062;1072
1120;1047;1043;1029;1037;1073;1021;1088;1043;1108;1028;1016;1054;1065;1094;1041;1010;1061;1046;1061
1135;1064;1023;1002;1027;1080;999;1049;1023;1093;994;998;1057;1058;1084;1059;1003;1058;1065;1073
1149;1078;1041;1010;1059;1077;1013;1045;1031;1105;1032;1015;1092;1076;1106;1093;1056;1098;1100;1124
1159;1099;1071;1025;1057;1109;1021;1088;1028;1123;1042;1076;1069;1072;1055;1084;1041;1072;1070;1081
1136;1090;1051;1039;1063;1094;985;1091;1023;1094;1027;1026;1067;1077;1094;1081;1054;1089;1123;1108
1120;1063;1024;1021;1043;1070;1033;1078;1045;1119;1043;1002;1077;1071;1063;1083;1069;1096;1094;1098
1147;1089;1053;1056;1057;1102;1009;1069;1030;1142;1060;1012;1068;1084;1094;1059;1064;1102;1109;1104
1139;1064;1028;1025;1046;1071;1017;1039;1006;1137;1052;1016;1072;1083;1085;1073;1060;1077;1084;1099
1101;1052;997;1016;1053;1088;1014;1064;1004;1126;1062;1003;1079;1065;1066;1092;1048;1077;1070;1107
1100;1045;1005;1022;1037;1075;1004;1074;1005;1117;1020;971;1040;1056;1060;1078;1018;1076;1095;1073
1120;1052;1016;1031;1072;1100;1022;1100;1012;1105;1054;1034;1076;1068;1074;1066;1023;1064;1063;1083
1137;1067;1021;1029;1055;1112;1003;1075;1006;1117;1052;1015;1057;1075;1107;1098;1042;1093;1110;1118
1134;1071;1012;1011;1056;1087;1014;1069;1018;1137;1096;1046;1091;1089;1097;1116;1086;1107;1112;1094
1170;1115;1063;1043;1063;1105;1037;1081;1055;1116;1063;1084;1086;1092;1086;1120;1051;1090;1134;1161
1193;1093;1036;1005;1043;1085;985;1084;1052;1158;1086;1052;1115;1140;1141;1143;1099;1136;1187;1221
1226;1113;1071;1038;1066;1135;1064;1116;1098;1154;1081;1054;1124;1116;1109;1149;1081;1104;1135;1231
1292;1135;1086;1050;1076;1139;1036;1121;1116;1120;1045;1050;1095;1089;1096;1096;1058;1089;1146;1221
1252;1131;1071;1033;1073;1125;1021;1106;1093;1147;1095;1044;1106;1091;1135;1127;1084;1125;1164;1239
1210;1126;1066;1015;1039;1124;1014;1051;1066;1132;1074;1017;1116;1076;1085;1130;1061;1098;1100;1180
1208;1117;1058;999;1030;1091;1021;1063;1022;1088;1035;1046;1065;1079;1074;1061;1028;1061;1075;1119
1090;1047;1008;998;1038;1045;1017;1061;973;1084;1051;1040;1064;1064;1049;1071;1040;1045;1024;1015
1074;1037;1018;1001;1013;1028;985;1028;956;1098;1042;1016;1032;1034;990;1100;1052;1045;1035;1003
1040;1034;996;999;1025;1041;1005;1065;927;1093;1062;1024;1085;1051;1012;1112;1050;1034;1009;978
1067;1056;1054;1051;1082;1089;1030;1077;993;1112;1090;1131;1086;1055;1023;1146;1077;1086;1052;994
1083;1064;1063;1071;1103;1105;1050;1096;996;1112;1078;1062;1087;1054;1056;1134;1075;1074;1053;1005
1045;1045;1036;1045;1087;1097;1020;1115;989;1077;1055;1045;1066;1050;1075;1091;1031;1080;1051;1031
1027;1029;993;991;1046;1122;965;1049;976;1092;1059;1024;1090;1081;1068;1106;1070;1098;1098;1027
1040;1031;992;995;1031;1296;975;1072;961;1063;1037;1007;1093;1051;1067;1099;1032;1042;1015;997
1050;1026;997;1007;1045;1295;995;1107;970;1054;1026;1043;1105;1080;1042;1092;1036;1043;1014;991
1018;1015;973;975;1036;1199;987;1064;912;1039;1010;1030;1077;1050;1036;1044;995;1007;994;984
1017;1032;988;983;1032;1219;996;1071;919;1034;1009;1010;1077;1026;1019;1072;1000;1009;1007;1002
1046;1039;1035;1005;1042;1182;1005;1060;945;1055;1011;1012;1064;1029;1032;1063;1033;1051;1036;1022
1061;1028;1025;1013;1057;1152;1011;1111;958;1070;1053;1014;1078;1059;1046;1054;1041;1045;1011;1005
1048;1021;1011;999;1033;1150;1004;1063;944;1068;1044;1011;1100;1056;1054;1088;1034;1050;1024;1017
1069;1046;1022;1009;1049;1167;1001;1094;970;1038;1019;997;1100;1037;1050;1057;1013;1030;1004;1010
1093;1054;1018;996;1030;1134;975;1115;954;1015;1005;1030;1078;1033;1007;1062;989;1021;1014;1030
1138;1080;1036;999;1042;1151;983;1097;983;1081;1052;1037;1084;1080;1084;1078;1019;1046;1093;1112
1190;1100;1061;1005;1049;1114;1016;1090;1044;1069;1035;1040;1085;1064;1068;1053;1014;1037;1087;1142
1237;1098;1050;1001;1046;1114;988;1079;1056;1059;1023;1035;1109;1115;1100;1080;1026;1088;1104;1211
1274;1129;1069;999;1038;1119;1026;1063;1093;1113;1032;1053;1072;1102;1092;1049;1025;1081;1131;1259
1265;1139;1074;1014;1052;1103;1024;1075;1098;1118;1074;1008;1102;1078;1076;1102;1050;1104;1118;1234
1269;1147;1103;1056;1078;1134;1039;1073;1134;1149;1071;1051;1096;1091;1057;1141;1072;1120;1128;1200
1248;1131;1100;1034;1084;1107;1050;1114;1115;1137;1087;1050;1090;1085;1080;1093;1047;1102;1098;1119
1184;1085;1044;1003;1036;1074;1001;1032;1067;1066;1016;1013;1072;1062;1059;1064;1026;1074;1076;1103
1127;1064;998;978;1013;1049;963;1028;998;1043;1010;1028;1071;1050;1031;1072;1003;1034;1003;1032
1030;1001;982;980;1040;1049;968;1079;928;1010;995;1039;1072;1030;1007;1065;1001;1025;988;969
982;986;971;991;1033;1030;979;1035;909;1022;1005;994;1080;1024;1056;1062;991;1025;945;940
1002;997;986;1003;1041;1040;1018;1083;924;1066;1043;1004;1081;1044;1037;1076;1017;1034;1004;950
1049;1029;1050;1051;1109;1045;1049;1125;969;1061;1051;1052;1062;1046;1034;1058;1016;1048;1033;986
995;990;980;998;1076;1030;982;1097;953;1055;1046;1037;1088;1045;1053;1093;1007;1042;1010;977
1024;1024;1008;1027;1081;1072;1053;1080;973;1101;1077;1041;1083;1061;1047;1120;1060;1088;1049;992
1047;1039;1042;1035;1079;1096;1051;1072;997;1131;1077;1066;1064;1076;1068;1073;1058;1101;1057;1006
1073;1053;1041;1043;1090;1109;1050;1101;1014;1137;1086;1053;1103;1085;1080;1108;1053;1085;1068;1013
1109;1074;1060;1052;1091;1079;1022;1072;1022;1117;1042;1029;1045;1037;1030;1101;1033;1074;1073;1032
1096;1076;1047;1037;1077;1069;1048;1066;1003;1135;1084;1041;1099;1080;1050;1126;1066;1087;1079;1046
1074;1036;1025;1035;1088;1072;1011;1078;985;1100;1061;1029;1104;1082;1092;1110;1054;1082;1048;1039
1068;1049;1005;1008;1036;1091;1072;1067;999;1105;1036;1001;1092;1041;1065;1083;1060;1052;1016;1027
1084;1058;1001;1012;1063;1084;1038;1092;999;1067;1028;1031;1073;1064;1054;1077;1035;1059;1029;1050
1080;1065;1004;1013;1035;1112;1006;1090;983;1078;1046;1052;1073;1076;1058;1089;1047;1077;1073;1059
1106;1094;1037;1055;1107;1114;1033;1112;1032;1109;1095;1075;1102;1072;1096;1121;1080;1076;1087;1074
1133;1104;1025;1044;1079;1022;1038;1116;1003;1088;1066;1071;1091;1089;1083;1109;1062;1075;1097;1100
1131;1088;1067;1090;1112;913;1098;1139;1047;1111;1092;1090;1089;1081;1091;1068;1065;1092;1093;1104
1136;1105;1056;1059;1078;899;1018;1061;1023;1099;1094;1041;1093;1093;1059;1123;1060;1093;1114;1112
1154;1116;1065;1070;1101;957;1063;1088;1072;1124;1116;1089;1102;1110;1083;1087;1073;1097;1089;1098
1132;1104;1024;1044;1076;940;1029;1094;1013;1089;1069;1053;1110;1072;1056;1096;1055;1074;1052;1054
1129;1104;1031;1030;1067;943;1021;1043;989;1047;1046;1034;1120;1062;1066;1086;1048;1073;1050;1055
1104;1086;1029;1038;1077;969;1006;1060;986;1072;1058;1030;1100;1072;1097;1092;1072;1074;1047;1034
1108;1075;1024;1020;1071;996;984;1092;996;1054;1030;1081;1065;1070;1044;1076;1049;1047;1042;1025
1071;1045;1001;998;1054;995;983;1074;959;1087;1084;1062;1092;1067;1062;1108;1061;1074;1040;1070
1073;1035;1009;1018;1070;998;1029;1079;954;1105;1077;1038;1080;1068;1050;1094;1065;1086;1059;1057
1116;1080;1049;1026;1069;1056;1024;1084;1007;1112;1064;1063;1072;1076;1044;1069;1068;1068;1046;1040
1086;1060;1016;1026;1081;1049;1005;1086;993;1125;1097;1019;1090;1048;1049;1111;1061;1068;1054;1042
1103;1094;1047;1030;1084;1076;1026;1101;1010;1155;1099;1040;1108;1071;1049;1152;1090;1117;1093;1073
1114;1104;1071;1035;1058;1073;1030;1072;993;1072;1030;1018;1079;1025;1030;1109;1049;1084;1029;1028
1101;1077;1000;997;1033;1047;995;1048;975;1061;1042;1021;1097;1044;1046;1085;1040;1037;1003;1019
1115;1093;1020;1013;1057;1087;1013;1071;975;1057;1010;1017;1095;1033;1070;1066;1039;1038;1040;1052
1122;1099;1032;1012;1052;1073;998;1080;979;1058;1010;1027;1064;1031;1042;1067;1020;1033;1032;1070
1164;1117;1034;1028;1054;1124;1020;1072;1011;1113;1064;1050;1095;1076;1074;1111;1069;1103;1115;1117
1173;1131;1073;1060;1077;1153;1080;1120;1056;1135;1064;1027;1087;1083;1095;1107;1059;1096;1095;1123
1154;1076;1002;993;1015;1103;1002;1094;1000;1047;1025;998;1066;1069;1056;1050;1034;1050;1075;1110
1131;1057;989;981;1007;1117;979;1081;1005;1071;1044;992;1103;1104;1113;1085;1045;1055;1117;1143
1188;1095;1010;1005;1057;1089;996;1071;1063;1059;1008;1025;1083;1071;1079;1076;1021;1046;1078;1177
1298;1179;1091;1044;1070;1149;1025;1050;1134;1140;1073;1033;1101;1090;1105;1119;1076;1113;1173;1225
1280;1172;1084;1059;1082;1136;1031;1081;1144;1158;1068;1061;1105;1109;1121;1104;1080;1111;1113;1205
1280;1173;1080;1057;1079;1135;1034;1073;1116;1129;1057;1056;1114;1100;1133;1136;1088;1124;1153;1246
1272;1166;1072;1054;1071;1135;1028;1088;1109;1178;1104;1071;1126;1127;1127;1141;1109;1158;1165;1214
1220;1123;1042;1037;1045;1126;1019;1120;1063;1096;1040;1047;1077;1060;1053;1093;1052;1069;1067;1101
1161;1065;981;1004;1016;1105;979;1005;1016;1091;1035;982;1110;1074;1127;1099;1058;1078;1080;1093
1084;1023;941;972;1010;1043;962;1049;960;1047;1038;988;1109;1063;1078;1096;1043;1047;1053;1046
1095;1063;994;1035;1067;1108;1015;1085;1003;1042;1021;1064;1074;1062;1064;1088;1030;1065;1061;986
1055;1060;990;1011;1054;1126;1000;1078;983;1038;1044;1053;1082;1047;1085;1087;1013;1032;1020;1005
1034;1025;936;976;1022;1082;989;1067;970;1066;1041;1001;1103;1047;1092;1101;1027;1051;1046;1005
1068;1046;965;1012;1035;1091;1006;1054;968;1080;1029;1019;1064;1050;1072;1073;1039;1052;1061;1003
1086;1087;1021;1016;1039;1131;1010;1053;1010;1107;1020;1013;1068;1055;1092;1038;1033;1078;1068;1047
1101;1087;1002;1036;1026;1129;1021;1048;1006;1073;1004;984;1032;1034;1025;1066;1021;1063;1016;1023
1117;1072;1012;1048;1059;1114;1013;1080;1014;1106;1077;1054;1084;1064;1055;1100;1060;1065;1047;1015
1094;1076;1033;1063;1086;1093;1021;1083;1000;1101;1084;1067;1095;1059;1069;1159;1079;1083;1085;1045
1084;1072;1021;1025;1056;1083;1025;1061;973;1104;1057;1001;1058;1041;1043;1105;1039;1052;1037;1026
1062;1049;1000;1033;1060;1086;1006;1095;999;1091;1055;1009;1091;1052;1071;1109;1027;1047;1043;976
1076;1067;1029;1041;1065;1090;988;1098;1009;1050;1002;1074;1062;1058;1036;1075;1001;1028;1026;947
1058;1036;997;1016;1059;1091;984;1086;952;1059;1049;1045;1100;1065;1072;1088;1026;1032;1022;932
1068;1028;1015;1028;1066;1051;980;1053;969;1085;1056;1070;1084;1054;1029;1088;1050;1061;1038;933
1109;1091;1066;1077;1103;1160;1046;1106;1000;1132;1097;1110;1090;1048;1019;1123;1088;1075;1020;926
1070;1039;1033;1032;1055;1315;995;1086;966;1110;1074;1023;1103;1035;1033;1122;1046;1056;1004;936
1041;1052;989;997;1027;1241;978;1043;942;1073;1059;1007;1072;1058;1048;1097;1035;1053;1030;978
1060;1055;1011;1025;1082;1238;990;1073;963;1108;1091;1031;1100;1077;1082;1098;1068;1092;1033;975
1054;1034;1031;1035;1083;1206;1025;1101;981;1115;1096;1040;1090;1067;1062;1137;1082;1101;1053;1027
1045;1014;1001;1019;1054;1157;989;1050;948;1025;1001;989;1076;1010;1040;1063;971;1009;969;990
1053;1025;1012;1016;1055;1168;1022;1115;960;1054;1031;1045;1076;1031;1004;1091;1000;1021;1003;1027
1077;1078;1027;1029;1068;1181;997;1080;958;1088;1057;1070;1094;1060;1043;1108;1043;1047;1069;1045
1084;1044;1017;1041;1082;1158;1030;1110;947;1077;1057;1051;1088;1030;1036;1098;1025;1037;1010;1035
1077;1044;1028;1029;1080;1123;1024;1098;980;1065;1054;1048;1078;1055;1036;1066;1026;1036;1027;1054
1079;1062;1041;1025;1064;1139;1001;1079;997;1084;1032;1029;1066;1051;1060;1062;1024;1031;1012;1068
1104;1082;1041;1017;1073;1125;1005;1073;1005;1076;1052;1031;1089;1048;1055;1080;1026;1037;1020;1075
1113;1069;1058;1033;1077;1131;1037;1092;1005;1090;1039;1027;1085;1065;1055;1116;1022;1039;1059;1106
1105;1067;1021;999;1061;1076;992;1037;1012;1049;1029;1053;1087;1050;1075;1075;1016;1051;1021;1055
1133;1083;1052;1005;1062;1070;1003;1057;1014;1089;1030;1046;1085;1068;1047;1072;1007;1041;1024;1079
1134;1050;1029;971;1038;975;946;1014;1023;1109;1008;961;979;945;956;1036;960;1019;996;1041
1129;1109;1085;1028;1073;1077;1033;1072;1042;1134;1079;1051;1044;1045;1034;1093;1038;1080;1082;1107
1187;1151;1137;1082;1102;1135;1072;1102;1074;1125;1067;1050;1114;1100;1107;1068;1072;1106;1096;1127
1130;1084;1056;1029;1047;1084;1040;1062;1011;1104;1034;1015;1109;1061;1064;1102;1063;1078;1044;1060
1099;1052;1036;1020;1067;1083;999;1081;1001;1088;1024;1038;1083;1052;1042;1072;1031;1053;1062;1057
1091;1040;1013;1003;1043;1077;978;1057;980;1075;1017;1018;1098;1062;1080;1089;1034;1061;1035;1060
1081;1029;1020;1002;1035;1085;979;1052;938;1042;1022;1004;1096;1043;1059;1089;1027;1071;1017;1081
1057;1000;975;973;1027;1016;1019;1064;918;1011;976;1024;1077;1050;1061;1030;1011;1065;997;1051
1077;1005;989;978;1028;1027;981;1059;957;1050;1008;1022;1071;1077;1068;1034;1017;1089;1015;1020
1081;1050;1040;1018;1079;1030;1032;1121;974;1044;1025;1052;1062;1065;1019;1104;1026;1104;1014;1020
1093;1048;1054;1033;1087;1049;1043;1153;989;1068;1062;1066;1093;1084;1065;1101;1036;1096;1027;1053
1109;1078;1056;1029;1083;1052;1039;1120;997;1075;1020;1024;1087;1062;1062;1078;1033;1091;1065;1059
1118;1076;1084;1033;1067;1056;1041;1088;1033;1112;1048;1028;1110;1082;1097;1100;1056;1133;1094;1089
1121;1085;1089;1049;1072;1077;1012;1125;1032;1105;1050;1099;1081;1090;1053;1096;1058;1139;1086;1090
1104;1082;1070;1027;1068;1076;1016;1086;1014;1089;1054;1068;1082;1074;1086;1072;1054;1109;1084;1082
1099;1071;1072;1019;1066;1100;982;1075;1020;1099;1038;1029;1092;1077;1087;1083;1052;1082;1074;1082
1160;1103;1097;1040;1086;1090;978;1088;1028;1092;1034;1059;1088;1088;1061;1072;1039;1080;1070;1091
1157;1098;1097;1033;1063;1063;1012;1080;1019;1086;1037;1031;1062;1072;1059;1043;1028;1089;1040;1078
1141;1118;1075;1037;1062;1090;1004;1044;1021;1104;1054;1016;1066;1056;1045;1104;1050;1100;1068;1087
1126;1105;1068;1055;1094;1089;1017;1066;1016;1115;1060;1075;1067;1058;1054;1121;1059;1082;1082;1110
1145;1134;1090;1058;1089;1115;1039;1060;1046;1121;1066;1068;1088;1088;1085;1100;1059;1108;1093;1108
1156;1123;1085;1063;1094;1130;1063;1091;1052;1134;1075;1069;1086;1103;1113;1124;1083;1135;1144;1152
1183;1140;1077;1046;1066;1096;994;1037;1049;1136;1084;1027;1117;1108;1118;1125;1087;1138;1117;1153
1188;1143;1079;1044;1088;1146;1026;1091;1039;1110;1052;1068;1085;1098;1047;1107;1054;1098;1119;1154
1138;1072;1015;1005;1042;1025;963;1062;1002;1046;1010;1046;1083;1082;1088;1085;1039;1065;1079;1099
1146;1070;1033;1015;1059;1010;1030;1092;995;1050;1018;1018;1073;1058;1042;1078;1019;1051;1025;1081
1116;1052;1013;969;998;934;974;1039;967;1037;997;992;1061;1059;1052;1062;1000;1049;1042;1072
1056;1032;1000;989;1039;940;978;1102;977;1074;1050;1028;1085;1052;1052;1109;1018;1065;1038;1054
1086;1071;987;971;1006;959;981;1057;968;1050;997;960;1044;1031;1019;1082;1000;1033;1005;1080
1098;1054;983;954;1003;953;977;1041;964;1056;1000;976;1060;1050;1051;1059;1015;1040;1030;1047
1108;1070;1034;989;1057;956;1008;1076;986;1092;1037;1023;1083;1054;1027;1072;1021;1050;1026;1029
1113;1061;1035;1002;1051;961;985;1084;963;1091;1033;992;1068;1048;1040;1096;1034;1073;1055;1020
1143;1104;1069;1021;1065;1028;1024;1082;995;1112;1060;1031;1059;1048;1020;1114;1046;1079;1086;1007
1140;1110;1067;1000;1059;995;996;1040;981;1090;1055;1059;1059;1050;1009;1122;1060;1073;1041;1042
1111;1096;1053;1001;1053;1014;989;1042;992;1081;1036;990;1066;1046;1041;1092;1033;1043;1027;1001
1102;1042;1027;986;1069;1015;1009;1079;969;1044;1028;1057;1089;1043;1041;1089;1023;1058;1014;1021
1101;1071;1046;987;1056;1069;979;1074;981;1049;1018;1042;1079;1025;1060;1070;1012;1040;1019;1025
1107;1069;1049;981;1039;1059;972;1046;1005;1096;1018;989;1085;1058;1075;1090;1031;1049;1041;1050
1131;1080;1071;1014;1047;1066;1010;1063;998;1085;1033;1011;1072;1082;1049;1057;1043;1068;1064;1043
1156;1119;1112;1039;1070;1121;1052;1075;1010;1096;1054;1024;1082;1074;1074;1079;1052;1062;1068;1090
1155;1108;1082;1030;1069;1044;1007;1070;1060;1093;1029;1043;1066;1069;1085;1060;1035;1067;1075;1062
1134;1099;1078;992;1024;1011;973;983;1012;1080;1011;960;1028;1023;1002;1061;1009;1052;1055;1092
1108;1112;1053;1020;1056;1042;1003;1079;1033;1065;1044;1050;1047;1044;1022;1071;1029;1046;1041;1077
1129;1097;1050;1027;1049;1094;1022;1052;1025;1093;1043;991;1081;1049;1073;1082;1052;1073;1073;1078
1138;1090;1048;1029;1040;1076;1006;1078;1012;1115;1044;1025;1076;1058;1098;1062;1046;1076;1060;1061
1137;1101;1069;1033;1067;1089;990;1117;1005;1109;1072;1092;1067;1061;1042;1102;1059;1086;1081;1073
1057;1030;983;974;1018;1047;960;1061;954;1053;1020;1043;1059;1044;1037;1070;1010;1034;1022;1055
1097;1087;1053;1023;1047;1093;983;1059;1015;1102;1018;1034;1054;1029;1073;1058;1006;1057;1017;1038
1112;1084;1023;1009;1032;1073;1025;1083;978;1092;1024;1036;1045;1047;1043;1039;1025;1031;1031;1049
1167;1113;1026;1022;1046;1154;1021;1051;965;1105;1045;1031;1058;1025;1030;1061;1027;1064;1039;1017
1129;1092;998;1007;1042;1119;1007;1073;973;1085;1032;996;1065;1030;1023;1087;1022;1042;1035;1030
1152;1103;989;1002;1031;1105;1017;1077;973;1058;1000;984;1051;1016;1016;1047;1006;1017;1020;1020
1129;1080;942;955;992;1034;972;1015;965;1076;1029;974;1028;979;968;1046;987;1005;990;997
1099;1052;914;965;999;1039;981;1038;961;1070;1026;993;1050;1018;1047;1062;1020;1056;1038;1017
1125;1087;947;994;1030;1064;1000;1075;981;1079;1053;1074;1086;1069;1042;1108;1059;1081;1065;1024
1122;1091;956;1018;1072;1045;1008;1101;969;1098;1077;1109;1093;1075;1049;1120;1080;1095;1074;1033
1147;1129;979;1059;1068;1094;1024;1105;1014;1125;1083;1083;1082;1097;1072;1099;1065;1090;1076;1073
1143;1102;971;1073;1083;1041;1047;1144;1026;1118;1083;1062;1086;1079;1049;1079;1058;1091;1067;1089
1173;1142;1002;1081;1110;1063;1089;1136;1053;1158;1097;1094;1101;1111;1076;1105;1083;1145;1130;1102
1154;1151;1019;1096;1112;1103;1065;1114;1065;1143;1104;1050;1091;1066;1051;1123;1080;1130;1098;1104
1097;1091;975;1062;1077;1093;1040;1064;997;1136;1089;1018;1103;1092;1072;1154;1089;1115;1092;1064
1078;1041;951;1048;1080;1238;1035;1106;996;1126;1063;1047;1093;1071;1069;1096;1063;1085;1072;1042
1081;1053;954;1046;1079;1250;1033;1081;1022;1116;1064;1062;1090;1080;1088;1133;1087;1106;1125;1097
1102;1083;958;1059;1103;1224;1037;1099;1018;1145;1106;1107;1106;1091;1074;1142;1104;1092;1075;1053
1090;1065;923;1038;1079;1159;1025;1113;999;1132;1099;1110;1111;1064;1051;1143;1085;1105;1073;1072
1099;1062;940;1042;1073;1109;1001;1107;1035;1077;1051;1089;1091;1067;1060;1111;1056;1084;1111;1107
1132;1071;922;1025;1060;1103;999;1092;1052;1083;1046;1019;1087;1061;1105;1068;1036;1063;1103;1127
1187;1117;965;1051;1067;1060;1044;1093;1053;1083;1035;1058;1076;1064;1080;1110;1050;1071;1106;1118
1151;1095;929;1043;1056;1083;1013;1075;1049;1054;1029;1047;1079;1056;1077;1084;1017;1055;1086;1122
1154;1098;963;1053;1080;1101;1057;1118;1049;1082;1061;1051;1090;1066;1090;1098;1046;1057;1062;1101
1168;1098;966;1044;1065;1075;1032;1092;1022;1050;1026;1058;1068;1074;1081;1046;1026;1045;1071;1091
1172;1091;952;1036;1054;1099;1001;1082;1041;1083;1049;1049;1088;1067;1095;1066;1035;1065;1051;1086
1144;1111;969;1043;1055;1091;1024;1072;1014;1049;1029;1051;1082;1041;1057;1084;1022;1058;1043;1063
1136;1076;946;1017;1050;1068;1004;1043;984;1070;1058;1040;1093;1058;1058;1079;1018;1078;1019;1061
1150;1132;1003;1061;1073;1110;1025;1167;1026;1085;1052;1062;1077;1053;1044;1090;1027;1066;1072;1071
1113;1077;949;999;1027;1082;992;1043;996;1098;1036;976;1101;1062;1073;1069;1033;1073;1058;1053
1078;1067;948;992;1033;1088;1002;1052;993;1094;1036;1003;1086;1057;1055;1086;1031;1055;1030;1031
1093;1070;940;990;1028;1112;957;1061;972;1092;1051;1067;1106;1080;1055;1117;1061;1070;1037;1017
1066;1056;945;1003;1051;1107;984;1071;972;1105;1055;1052;1096;1047;1066;1107;1051;1054;1039;1035
1122;1079;973;1023;1070;1078;1001;1081;982;1060;1032;1070;1074;1043;1034;1035;1020;1027;1015;1026
1093;1047;787;1000;1028;1094;989;1043;971;1103;1020;1016;1078;1090;1079;1060;1046;1085;1066;1048
1111;1054;879;1004;1014;1090;1019;1056;969;1061;993;1023;1068;1040;1078;1025;1006;1024;1013;1027
1120;1065;910;1010;1033;1094;1007;1067;970;1071;1003;1022;1064;1055;1044;1050;1007;1058;1036;1051
1102;1060;902;1007;1051;1070;1009;1064;989;1075;1009;1036;1086;1076;1067;1049;1024;1044;1029;1024
1068;1044;903;1000;1036;1066;1004;1037;992;1026;990;1026;1071;1051;1055;1046;1018;1026;1021;1044
1107;1059;926;1011;1069;1088;1033;1088;996;1054;1017;1022;1090;1041;1071;1057;1035;1047;1015;1041
1101;1049;913;995;1047;1070;993;1101;960;1048;1031;1058;1063;1036;1012;1065;1014;1012;1001;1053
1148;1096;1005;1032;1076;1103;983;1092;1013;1060;1045;1086;1096;1080;1051;1066;1038;1052;1061;1084
1167;1097;1029;1066;1083;1081;1036;1112;1050;1100;1076;1088;1118;1082;1068;1121;1059;1067;1066;1127
1232;1160;1086;1112;1143;1145;1073;1133;1117;1138;1106;1122;1119;1103;1065;1125;1096;1115;1120;1199
1272;1153;1064;1079;1104;1112;1067;1118;1086;1151;1090;1091;1100;1115;1125;1095;1093;1158;1152;1231
1228;1126;1047;1063;1096;1118;1012;1090;1087;1145;1079;1043;1117;1119;1102;1139;1077;1146;1145;1218
1224;1157;1096;1091;1115;1122;1049;1094;1079;1128;1077;1064;1100;1094;1069;1128;1077;1105;1143;1195
1205;1140;1059;1073;1085;1104;1045;1080;1058;1115;1071;1055;1112;1101;1081;1120;1082;1090;1109;1161
1179;1137;1070;1072;1084;1102;1061;1100;1062;1116;1050;1077;1102;1072;1090;1132;1080;1101;1115;1165
1180;1135;1076;1068;1100;1106;1060;1100;1049;1095;1063;1077;1095;1059;1056;1125;1052;1062;1083;1126
1121;1110;1048;1018;1054;1070;1003;1102;1019;1069;1036;1054;1068;1039;1028;1077;1036;1049;1029;1051
1088;1049;1020;987;1016;1075;977;1005;938;1053;1014;1016;1074;1042;1029;1077;1011;1027;1040;1034
1076;1040;997;979;1036;1043;988;1029;947;1054;1017;992;1057;1010;1037;1085;1020;1036;1038;1025
1072;1029;1008;1005;1043;1027;1011;1086;965;1024;1016;1043;1060;1032;1013;1042;1015;1036;1026;1007
1044;1018;998;999;1037;986;969;1033;968;1041;1031;1008;1081;1035;1043;1079;1034;1046;1042;1031
1064;1044;1014;1021;1062;889;1017;1081;1006;1096;1053;1024;1079;1046;1089;1097;1058;1093;1075;1090
1060;1028;1004;1001;1048;874;983;1037;1007;1079;1010;1031;1064;1064;1068;1052;1029;1064;1049;1060
1048;1032;975;963;1025;882;966;1006;972;1058;1008;974;1061;1061;1048;1033;1013;1043;1018;1007
1032;1020;967;978;1029;854;947;1004;961;1020;977;982;1045;1013;1020;1049;1004;1051;1038;996
1021;1021;990;980;1019;903;981;1002;961;1043;1022;1024;1074;1051;1046;1067;1020;1070;1032;998
1037;1031;1009;986;1018;926;949;1048;951;1032;995;1022;1083;1033;1003;1059;993;1040;1026;983
1022;1016;996;965;998;938;960;1022;948;1045;965;927;1068;1030;1049;1024;992;1020;1013;972
1028;1032;1025;987;1018;989;994;1096;963;1053;980;977;1068;1034;1030;1040;986;1032;1015;963
1023;1038;1017;963;992;1011;943;1047;952;1073;982;968;1077;1050;1036;1045;992;1045;1053;991
1023;1046;1042;989;1023;1050;996;1089;1000;1083;1028;1002;1081;1054;1077;1060;1036;1059;1069;1036
1096;1054;1060;1020;1043;1044;1022;1054;996;1107;1037;1002;1064;1077;1039;1050;1045;1056;1078;1026
1078;1059;1080;1032;1086;1075;1024;1061;1026;1107;1034;1072;1070;1076;1057;1039;1037;1055;1074;1039
1092;1083;1086;1042;1091;1085;1019;1084;1023;1127;1061;1058;1072;1033;1050;1090;1049;1070;1079;1042
1078;1053;1037;1026;1054;1081;1017;1047;1033;1096;1043;1034;1070;1061;1049;1078;1035;1066;1082;1036
1074;1061;1021;1032;1051;1089;1018;1051;1007;1102;1060;1032;1055;1031;1019;1046;1013;1065;1024;990
1089;1073;1047;1040;1056;1113;1034;1079;977;1061;1022;1005;1054;1030;1050;1042;1009;1076;1021;1007
1066;1032;1004;1001;1038;1049;977;998;964;1070;1040;1021;1089;1057;1055;1077;1038;1049;1022;995
1113;1080;1085;1051;1089;1108;1052;1099;992;1066;1050;1133;1068;1036;1021;1096;1056;1062;1057;1027
1070;1048;1031;1000;1036;1082;951;1055;960;1072;1052;1067;1111;1084;1079;1115;1069;1072;1076;1038
1072;1046;1029;990;1037;1060;994;1055;963;1088;1089;1015;1104;1071;1038;1112;1077;1074;1078;1054
1136;1133;1102;1058;1100;1120;1044;1089;1030;1067;1005;1060;1069;1058;1034;1049;1037;1034;1060;1037
1127;1112;1073;1036;1079;1118;1042;1091;993;1106;1058;1085;1098;1083;1047;1069;1049;1051;1078;1033
1118;1090;1042;1011;1055;1103;983;1023;974;1083;1040;1004;1081;1033;1003;1087;1014;1033;1027;1003
1086;1053;1044;1021;1054;1079;1006;1060;984;1048;1027;1039;1075;1034;1006;1089;1034;1043;1028;999
1075;1030;1010;1018;1058;1070;979;1054;966;1054;1055;1062;1075;1038;1026;1088;1043;1066;1037;994
1069;1034;1020;999;1054;1078;991;1029;962;1043;1036;1022;1090;1046;1039;1093;1043;1068;1043;1024
1076;1036;1012;987;1042;1069;986;1050;958;1033;1032;1059;1083;1048;996;1086;1008;1047;1007;1005
1069;1050;1016;1001;1049;1074;992;1062;964;1070;1059;1080;1057;1047;1030;1083;1035;1041;1045;1014
1060;1043;1025;1036;1069;1084;1018;1077;986;1063;1058;1057;1083;1048;1052;1086;1033;1023;1022;1015
1077;1044;1032;1039;1070;1075;1029;1076;995;1080;1053;1061;1113;1074;1045;1109;1043;1080;1058;1035
1101;1067;1044;1033;1090;1080;1012;1081;984;1098;1067;1050;1089;1083;1043;1097;1069;1092;1082;1023
1084;1072;1057;1054;1107;1109;1047;1117;1013;1131;1075;1064;1088;1046;1063;1119;1075;1083;1069;1033
1110;1070;1050;1048;1074;1133;1011;1097;1008;1108;1090;1051;1113;1075;1051;1142;1084;1073;1085;1062
1113;1085;1063;1044;1063;1192;1029;1088;1021;1102;1085;1085;1096;1074;1076;1085;1069;1087;1064;1022
1121;1085;1086;1064;1076;1320;1023;1091;997;1114;1082;1056;1099;1078;1065;1085;1052;1056;1053;1040
1078;1047;1031;1020;1046;1211;942;1004;970;1077;1031;978;1057;1032;1023;1089;1032;1047;1047;1048
1079;1043;1033;1023;1067;1252;1010;1089;974;1105;1087;1038;1106;1068;1053;1134;1062;1087;1071;1049
1092;1048;1016;1019;1058;1223;1009;1092;990;1086;1059;1033;1120;1073;1092;1100;1079;1099;1080;1052
1065;1041;1044;1034;1070;1197;1025;1136;972;1103;1063;1013;1102;1069;1082;1088;1065;1141;1048;1038
1126;1068;1074;1060;1070;1173;1024;1059;1012;1110;1071;1044;1097;1083;1080;1110;1083;1136;1075;1040
1096;1053;1057;1057;1090;1176;1017;1105;1012;1104;1085;1059;1110;1091;1088;1132;1093;1141;1067;1057
1138;1088;1093;1089;1104;1169;1010;1097;1061;1113;1070;1069;1114;1068;1068;1132;1056;1128;1072;1076
1181;1094;1092;1071;1122;1132;1034;1116;1044;1133;1088;1131;1122;1075;1077;1120;1080;1123;1082;1074
1155;1094;1105;1063;1106;1144;1024;1103;1054;1116;1080;1089;1093;1079;1076;1090;1057;1115;1074;1054
1134;1090;1078;1050;1087;1133;1022;1082;1040;1106;1072;1082;1078;1061;1055;1116;1049;1098;1050;1053
1126;1073;1065;1036;1074;1111;1041;1077;1018;1062;1051;1070;1100;1087;1071;1096;1048;1077;1033;1025
1076;1018;1001;975;1048;1094;992;1069;969;1027;1032;1046;1084;1031;1043;1078;1022;1036;1053;1008
1097;1050;1039;1001;1048;1094;1002;1041;982;1067;1029;999;1090;1054;1083;1080;1031;1083;1076;1044
1121;1055;1053;999;1046;1084;998;1042;988;1068;1013;987;1061;1010;1051;1059;993;1038;1025;1040
1123;1060;1032;968;1031;1108;989;1055;958;1079;1017;1019;1054;1019;1032;1060;1006;1030;1068;1052
1135;1112;1057;984;1032;1128;993;1021;992;1088;1022;989;1073;1061;1076;1067;1031;1050;1079;1052
1143;1089;1045;988;1021;1074;1017;1034;997;1090;1040;1004;1072;1063;1046;1087;1050;1085;1084;1053
1146;1087;1048;1003;1043;1101;1017;1062;1000;1081;1030;1011;1063;1052;1035;1026;1022;1042;1062;1054
1105;1053;1041;1001;1041;1087;986;1070;983;1052;1035;993;1072;1038;1020;1094;1007;1021;1034;1026
1087;1034;1018;995;1031;1045;965;1041;964;1045;999;979;1060;1023;1023;1074;983;1016;1022;1035
1106;1052;1018;987;1026;1054;995;1035;973;1049;1019;1006;1084;1045;1048;1097;1026;1049;1051;1043
1124;1060;1040;991;1040;1026;966;1017;990;1056;1025;1001;1048;995;985;1079;974;1017;1011;1007
1129;1077;1071;1018;1069;1073;1008;1040;1001;1078;1030;1011;1103;1046;1066;1099;1023;1055;1069;1044
1143;1078;1077;1038;1072;1103;1049;1087;1014;1071;1042;1075;1116;1065;1070;1120;1058;1073;1076;1065
1139;1085;1064;999;1028;1088;991;1067;988;1054;1005;1039;1067;1061;1040;1070;1033;1055;1062;1031
1130;1087;1076;1028;1059;1087;1028;1099;1009;1088;1042;1019;1098;1050;1061;1085;1039;1065;1063;1010
1165;1078;1074;1016;1056;1082;1037;1100;1008;1055;1026;1043;1087;1059;1069;1092;1043;1050;1071;1039
1133;1088;1087;1036;1084;1119;1029;1104;1027;1086;1053;1076;1085;1057;1084;1095;1035;1067;1070;1048
1130;1081;1085;1034;1091;1091;1007;1094;1045;1082;1051;1057;1096;1057;1080;1124;1034;1050;1062;1070
1179;1082;1073;1047;1098;1069;1036;1101;1056;1098;1056;1082;1093;1071;1065;1138;1082;1084;1086;1077
1197;1115;1112;1053;1091;1102;1058;1100;1059;1136;1085;1091;1089;1065;1073;1122;1079;1090;1093;1053
1207;1122;1130;1050;1074;1125;1080;1083;1066;1144;1075;1045;1089;1077;1053;1106;1050;1086;1081;1085
1178;1080;1076;1014;1058;1032;987;1018;1031;1100;1009;971;988;967;979;1048;987;1017;1025;1043
1177;1094;1081;1006;1052;1086;1019;1057;1026;1122;1055;1049;1080;1052;1028;1114;1056;1079;1079;1117
1219;1142;1122;1054;1068;1147;1073;1103;1063;1153;1089;1041;1132;1106;1127;1129;1104;1137;1134;1157
1209;1147;1128;1052;1063;1139;1052;1062;1088;1143;1086;1038;1124;1106;1098;1112;1089;1121;1149;1158
1183;1094;1108;1072;1069;1101;1038;1074;1015;1106;1064;1033;1089;1090;1063;1100;1085;1093;1104;1150
1111;1070;1065;1030;1045;1096;1025;1066;991;1047;1025;1044;1076;1077;1065;1085;1039;1063;1082;1083
1072;1036;1045;1025;1049;1059;1004;1081;988;1082;1038;1020;1114;1070;1053;1104;1055;1065;1072;1080
1085;1069;1058;1023;1056;1038;1027;1093;976;1101;1039;1046;1099;1089;1051;1069;1058;1084;1068;1066
1090;1066;1028;990;1013;1065;981;1015;973;1085;1047;1026;1105;1077;1071;1070;1055;1054;1065;1087
1116;1102;1070;1017;1065;1087;1019;1082;1022;1086;1030;1049;1105;1053;1061;1115;1054;1072;1084;1087
1124;1096;1071;1016;1066;1077;1020;1070;1016;1092;1075;1066;1128;1067;1029;1109;1055;1068;1040;1047
1099;1086;1083;1037;1072;1081;1038;1079;1008;1100;1072;1042;1116;1060;1052;1113;1066;1080;1087;1078
1112;1067;1085;1030;1079;1089;1030;1063;1006;1095;1054;994;1076;1049;1051;1078;1037;1058;1034;1039
1106;1072;1060;1019;1063;1080;1035;1086;1013;1069;1033;1042;1085;1057;1070;1078;1026;1058;1028;1025
1100;1084;1078;1032;1080;1122;999;1073;1005;1084;1050;1084;1094;1073;1064;1100;1054;1092;1060;1053
1077;1070;1074;1028;1072;1156;1051;1158;1006;1075;1056;1051;1071;1054;1060;1105;1027;1056;1044;1047
1076;1086;1058;1015;1051;1103;1033;1070;984;1065;1041;1024;1056;1048;1009;1067;1018;1058;1036;1055
1128;1088;1096;1046;1079;1125;1046;1097;1032;1106;1055;1062;1079;1076;1078;1069;1061;1095;1081;1070
1094;1076;1075;1036;1075;1132;1035;1092;1002;1088;1060;1026;1093;1056;1041;1105;1054;1085;1054;1069
1095;1062;1059;1026;1065;1110;1026;1078;977;1081;1061;1046;1113;1077;1042;1120;1064;1049;1034;1066
1094;1056;1052;1032;1070;1088;1040;1073;971;1095;1082;1065;1102;1069;1042;1099;1069;1054;1046;1053
1105;1073;1072;1053;1086;1086;1037;1106;987;1071;1042;1061;1088;1061;1053;1099;1061;1047;1040;1065
1043;1014;1013;991;1047;1052;997;1049;947;1054;1002;985;1082;1045;1061;1054;1023;1029;994;1011
1068;1031;1030;986;1042;1073;988;1068;954;1035;999;1046;1043;1037;1019;1052;1013;1015;977;1031
1054;1028;1049;1014;1059;1091;982;1071;957;1047;1006;1044;1047;1026;1052;1028;1014;1020;1012;1020
1067;1062;1075;1028;1065;1091;1029;1035;992;1077;1034;1007;1048;1049;1063;1057;1038;1049;1031;1052
1113;1076;1080;1027;1063;1097;1033;1065;1015;1073;1022;1043;1044;1063;1069;1024;1017;1056;1038;1072
1065;1056;1042;986;1015;998;983;1040;987;1091;1027;974;1053;1063;1095;1040;999;1046;1044;1080
1097;1063;1046;986;1030;974;984;1050;994;1107;1061;965;1064;1057;1058;1084;1047;1066;1069;1084
1120;1084;1054;1004;1037;938;969;1025;1000;1041;971;992;1035;1016;1034;1042;997;1061;1047;1079
1145;1084;1075;1010;1038;916;1008;1056;1026;1064;998;1024;1044;1036;1049;1025;1009;1067;1046;1046
1139;1106;1078;1032;1063;974;1034;1094;1032;1076;1005;1003;1050;1045;1055;1046;1019;1063;1076;1095
1115;1069;1037;1003;1040;1017;1020;1070;995;1062;1037;1007;1087;1056;1046;1081;1042;1071;1060;1077
994;928;905;864;951;736;815;874;962;1081;920;893;838;820;816;995;872;914;936;942
899;822;828;814;944;627;757;850;956;1076;943;801;777;746;775;954;803;870;922;896
1052;1040;1025;1000;1053;1036;1000;1125;1016;1071;1069;1041;1135;1099;1157;1112;1075;1100;1139;1094
1122;1097;1067;1061;1087;1090;1067;1108;1011;1111;1127;1097;1185;1144;1141;1178;1148;1146;1138;1117
1159;1116;1115;1095;1108;1121;1079;1129;1034;1103;1079;1129;1167;1139;1124;1122;1123;1150;1135;1111
1107;1078;1014;1016;1055;1079;1045;1072;1004;1068;1026;1066;1141;1139;1113;1106;1091;1099;1062;1074
1115;1099;1063;1043;1062;1125;1022;1078;1008;1109;1040;1060;1128;1127;1115;1139;1100;1121;1116;1130
1120;1101;1083;1063;1089;1161;1060;1143;1030;1140;1093;1077;1133;1122;1092;1128;1096;1122;1087;1070
1108;1085;1066;1064;1081;1131;1053;1099;1022;1101;1056;1068;1120;1093;1108;1105;1101;1116;1099;1097
1098;1064;1048;1038;1060;1104;1038;1093;1001;1111;1069;1006;1125;1104;1123;1121;1091;1096;1089;1087
1129;1092;1077;1055;1074;1295;1047;1118;1006;1087;1088;1102;1122;1110;1061;1130;1083;1102;1079;1084
1078;1043;1006;987;1034;1258;964;1055;961;1057;1042;1049;1102;1082;1072;1089;1058;1071;1072;1065
1101;1076;1040;1031;1052;1225;1034;1069;986;1075;1049;1041;1100;1050;1085;1098;1058;1074;1049;1100
1116;1062;1045;1012;1040;1175;1008;1061;990;1076;1027;1008;1069;1036;1065;1053;1023;1049;1040;1095
1127;1074;1049;1015;1048;1137;996;1065;1000;1078;1035;1052;1085;1067;1071;1048;1045;1057;1050;1099
1121;1073;1057;1015;1048;1121;1006;1067;1024;1102;1042;1017;1071;1039;1073;1079;1032;1064;1059;1087
1172;1103;1094;1051;1091;1117;1016;1091;1029;1118;1057;1058;1088;1064;1064;1116;1063;1103;1116;1119
1134;1094;1076;1014;1058;1091;1001;1052;1036;1121;1081;1041;1102;1079;1079;1118;1050;1098;1097;1090
1141;1085;1103;1043;1099;1138;1073;1118;1071;1125;1076;1070;1116;1082;1103;1127;1076;1111;1107;1110
